,TP9,AF7,AF8,TP10,Right AUX,timestamps
0,0.000,0.000,0.000,0.000,0.000,1731707843.139
1,0.000,0.000,0.000,0.000,0.000,1731707843.143
2,-32.227,-0.977,-0.977,-32.227,0.000,1731707843.147
3,70.312,0.977,1.953,70.312,0.000,1731707843.151
4,-396.484,-6.836,-10.254,-396.484,0.000,1731707843.155
5,-1000.000,-22.949,-23.438,-1000.000,0.000,1731707843.159
6,-992.188,-18.555,-14.160,-992.188,0.000,1731707843.162
7,-986.816,-12.695,-14.648,-986.816,0.000,1731707843.166
8,-1000.000,-25.879,-18.066,-1000.000,0.000,1731707843.170
9,-1000.000,-20.996,-18.066,-1000.000,0.000,1731707843.174
10,-1000.000,-6.836,-22.461,-1000.000,0.000,1731707843.178
11,-1000.000,-13.672,-26.367,-1000.000,0.000,1731707843.182
12,-1000.000,-10.742,-28.320,-1000.000,0.000,1731707843.184
13,-1000.000,-2.930,-30.273,-1000.000,0.000,1731707843.188
14,-1000.000,-4.883,-31.738,-1000.000,0.000,1731707843.192
15,-1000.000,-0.977,-29.785,-1000.000,0.000,1731707843.196
16,-1000.000,-7.812,-28.809,-1000.000,0.000,1731707843.199
17,-1000.000,-13.184,-30.762,-1000.000,0.000,1731707843.203
18,-1000.000,-1.953,-24.902,-1000.000,0.000,1731707843.207
19,-951.660,-19.043,-28.809,-1000.000,0.000,1731707843.211
20,-1000.000,-41.504,-35.156,-1000.000,0.000,1731707843.215
21,-887.695,-24.902,-34.668,-1000.000,0.000,1731707843.218
22,482.422,-9.766,-33.691,-1000.000,0.000,1731707843.222
23,-920.410,-8.301,-29.297,-1000.000,0.000,1731707843.226
24,905.273,-11.719,-30.762,-985.352,0.000,1731707843.227
25,979.492,-17.578,-31.738,-963.379,0.000,1731707843.230
26,970.215,-21.484,-26.855,-1000.000,0.000,1731707843.234
27,970.215,-7.812,-24.414,20.508,0.000,1731707843.238
28,970.215,0.977,-23.438,-914.062,0.000,1731707843.241
29,970.215,4.883,-21.973,926.270,0.000,1731707843.245
30,969.727,11.719,-21.484,959.961,0.000,1731707843.249
31,969.727,-8.789,-20.020,973.145,0.000,1731707843.252
32,969.727,-22.949,-21.484,970.703,0.000,1731707843.256
33,969.727,-19.531,-27.344,970.703,0.000,1731707843.260
34,969.727,-16.602,-28.320,970.215,0.000,1731707843.263
35,970.215,-9.277,-22.461,970.703,0.000,1731707843.267
36,969.727,-5.859,-18.555,970.703,0.000,1731707843.267
37,970.215,-9.277,-20.020,970.215,0.000,1731707843.270
38,970.215,-6.836,-22.949,970.703,0.000,1731707843.274
39,970.215,-6.836,-20.508,970.703,0.000,1731707843.277
40,970.215,-8.301,-20.508,970.215,0.000,1731707843.281
41,969.727,-3.906,-23.926,970.703,0.000,1731707843.284
42,970.215,-24.414,-31.250,970.703,0.000,1731707843.288
43,969.727,-40.527,-32.715,970.215,0.000,1731707843.291
44,969.727,-19.531,-25.879,970.703,0.000,1731707843.295
45,970.215,-17.578,-22.461,970.703,0.000,1731707843.298
46,970.215,-23.926,-23.438,970.703,0.000,1731707843.302
47,969.727,-18.066,-21.484,970.703,0.000,1731707843.305
48,970.215,-8.301,-19.043,970.703,0.000,1731707843.305
49,969.727,-9.277,-21.973,970.215,0.000,1731707843.309
50,969.727,-20.508,-28.320,970.215,0.000,1731707843.312
51,969.727,-18.066,-27.344,970.703,0.000,1731707843.316
52,969.727,-13.672,-22.949,970.703,0.000,1731707843.319
53,969.727,-11.230,-20.020,970.703,0.000,1731707843.323
54,969.727,-30.762,-20.996,970.215,0.000,1731707843.326
55,969.727,-35.645,-24.902,970.703,0.000,1731707843.330
56,970.215,-21.484,-25.879,970.703,0.000,1731707843.333
57,970.215,-30.273,-25.879,970.703,0.000,1731707843.337
58,969.727,-32.227,-26.367,970.703,0.000,1731707843.340
59,969.727,-30.762,-25.879,970.703,0.000,1731707843.343
60,969.727,-32.715,-25.879,970.703,0.000,1731707843.344
61,969.727,-30.762,-25.391,970.215,0.000,1731707843.348
62,969.727,-33.203,-25.391,970.703,0.000,1731707843.351
63,969.727,-38.086,-23.926,970.703,0.000,1731707843.354
64,969.727,-24.414,-25.879,970.703,0.000,1731707843.358
65,969.727,-39.062,-29.785,970.703,0.000,1731707843.361
66,969.727,-67.871,-29.785,970.703,0.000,1731707843.365
67,969.727,-48.340,-34.668,970.703,0.000,1731707843.368
68,969.727,-36.133,-37.109,970.703,0.000,1731707843.372
69,969.727,-26.855,-41.992,970.703,0.000,1731707843.375
70,969.727,-18.555,-45.410,970.703,0.000,1731707843.378
71,969.727,-26.367,-26.367,970.703,0.000,1731707843.382
72,0.000,-32.227,-16.602,970.703,0.000,1731707843.386
73,0.000,-37.598,-17.578,970.703,0.000,1731707843.389
74,0.000,-37.598,-14.648,970.703,0.000,1731707843.392
75,0.000,-39.551,-11.719,970.703,0.000,1731707843.396
76,0.000,-50.781,-9.277,970.703,0.000,1731707843.399
77,0.000,-44.922,-13.184,970.703,0.000,1731707843.403
78,0.000,-32.227,-13.184,970.703,0.000,1731707843.406
79,0.000,-27.832,-10.254,970.703,0.000,1731707843.410
80,0.000,-39.062,-14.648,970.703,0.000,1731707843.413
81,0.000,-65.430,-15.137,970.215,0.000,1731707843.416
82,0.000,-54.199,-12.695,970.703,0.000,1731707843.420
83,0.000,-39.551,-14.160,970.703,0.000,1731707843.423
84,969.727,-45.410,-15.137,970.703,0.000,1731707843.427
85,969.727,-39.062,-14.648,970.703,0.000,1731707843.431
86,969.727,-27.832,-13.184,970.703,0.000,1731707843.434
87,970.215,-21.973,-13.672,970.703,0.000,1731707843.438
88,969.727,-30.273,-16.602,970.703,0.000,1731707843.441
89,969.727,-38.086,-14.648,970.703,0.000,1731707843.445
90,969.727,-29.297,-15.625,970.703,0.000,1731707843.448
91,969.727,-23.926,-19.043,970.215,0.000,1731707843.451
92,970.215,-40.039,-19.531,970.703,0.000,1731707843.455
93,975.098,-45.898,-21.484,970.703,0.000,1731707843.458
94,901.855,-33.203,-22.461,970.703,0.000,1731707843.462
95,-891.602,-22.949,-25.879,970.703,0.000,1731707843.465
96,0.000,-22.949,-29.297,970.703,0.000,1731707843.470
97,0.000,-37.109,-29.785,970.703,0.000,1731707843.473
98,0.000,-34.180,-23.926,970.703,0.000,1731707843.477
99,0.000,-30.273,-17.578,970.703,0.000,1731707843.480
100,0.000,-27.344,-15.137,970.703,0.000,1731707843.483
101,0.000,-27.344,-21.973,970.703,0.000,1731707843.487
102,0.000,-25.391,-27.832,970.703,0.000,1731707843.490
103,0.000,-19.531,-24.414,970.703,0.000,1731707843.494
104,0.000,-34.668,-25.391,970.703,0.000,1731707843.497
105,0.000,-50.781,-31.738,970.703,0.000,1731707843.501
106,0.000,-50.781,-34.668,970.703,0.000,1731707843.504
107,0.000,-39.551,-27.344,971.680,0.000,1731707843.507
108,-1000.000,-28.809,-18.066,908.203,0.000,1731707843.512
109,-1000.000,-28.320,-18.555,-890.625,0.000,1731707843.516
110,-1000.000,-37.109,-23.926,189.453,0.000,1731707843.519
111,-1000.000,-46.875,-28.320,-1000.000,0.000,1731707843.523
112,-1000.000,-41.992,-29.785,-984.375,0.000,1731707843.526
113,-1000.000,-33.691,-32.715,-973.145,0.000,1731707843.530
114,-1000.000,-32.715,-33.691,-1000.000,0.000,1731707843.533
115,-1000.000,-54.688,-34.668,-1000.000,0.000,1731707843.537
116,-1000.000,-64.941,-38.086,-1000.000,0.000,1731707843.540
117,-1000.000,-42.969,-38.574,-1000.000,0.000,1731707843.544
118,-1000.000,-39.551,-34.180,-1000.000,0.000,1731707843.547
119,-1000.000,-42.480,-33.691,-1000.000,0.000,1731707843.550
120,-1000.000,-31.738,-30.273,-1000.000,0.000,1731707843.556
121,-1000.000,-27.344,-22.949,-1000.000,0.000,1731707843.559
122,-1000.000,-31.738,-24.414,-1000.000,0.000,1731707843.562
123,-1000.000,-27.344,-29.297,-1000.000,0.000,1731707843.566
124,-1000.000,-25.391,-28.320,-1000.000,0.000,1731707843.569
125,-1000.000,-36.133,-25.391,-1000.000,0.000,1731707843.573
126,-1000.000,-38.574,-24.414,-1000.000,0.000,1731707843.576
127,-1000.000,-53.711,-32.227,-1000.000,0.000,1731707843.580
128,-1000.000,-62.988,-39.551,-1000.000,0.000,1731707843.583
129,-1000.000,-41.016,-36.133,-1000.000,0.000,1731707843.587
130,-1000.000,-38.086,-39.062,-1000.000,0.000,1731707843.590
131,-1000.000,-53.223,-46.387,-1000.000,0.000,1731707843.594
132,-1000.000,-40.527,-45.898,-1000.000,0.000,1731707843.599
133,-1000.000,-26.855,-41.992,-1000.000,0.000,1731707843.602
134,-1000.000,-29.785,-37.109,-1000.000,0.000,1731707843.606
135,-1000.000,-36.621,-31.738,-1000.000,0.000,1731707843.609
136,-1000.000,-41.992,-31.250,-1000.000,0.000,1731707843.613
137,-1000.000,-25.391,-28.809,-1000.000,0.000,1731707843.616
138,-1000.000,-43.457,-28.320,-1000.000,0.000,1731707843.620
139,-1000.000,-71.289,-35.645,-1000.000,0.000,1731707843.623
140,-1000.000,-32.227,-41.504,-1000.000,0.000,1731707843.627
141,-1000.000,-12.695,-39.551,-1000.000,0.000,1731707843.630
142,-1000.000,-12.695,-32.715,-1000.000,0.000,1731707843.634
143,-1000.000,-18.555,-34.668,-1000.000,0.000,1731707843.637
144,-1000.000,-26.855,-40.527,-1000.000,0.000,1731707843.643
145,-1000.000,-26.855,-38.086,-1000.000,0.000,1731707843.646
146,-1000.000,-21.484,-31.738,-1000.000,0.000,1731707843.650
147,-1000.000,-26.855,-30.273,-1000.000,0.000,1731707843.653
148,-1000.000,-30.762,-31.738,-1000.000,0.000,1731707843.657
149,-1000.000,-15.625,-28.809,-1000.000,0.000,1731707843.660
150,-1000.000,-28.320,-27.832,-1000.000,0.000,1731707843.664
151,-1000.000,-44.434,-25.391,-1000.000,0.000,1731707843.667
152,-1000.000,-23.926,-23.438,-1000.000,0.000,1731707843.671
153,-1000.000,-12.207,-28.320,-1000.000,0.000,1731707843.674
154,-1000.000,-13.672,-31.250,-1000.000,0.000,1731707843.678
155,-1000.000,-11.230,-25.391,-1000.000,0.000,1731707843.681
156,-1000.000,2.441,-13.672,-1000.000,0.000,1731707843.687
157,-1000.000,2.441,-10.742,-1000.000,0.000,1731707843.690
158,-1000.000,-2.441,-14.648,-1000.000,0.000,1731707843.694
159,-1000.000,8.301,-13.184,-1000.000,0.000,1731707843.697
160,-1000.000,8.789,-9.277,-1000.000,0.000,1731707843.701
161,-1000.000,-17.090,-16.602,-1000.000,0.000,1731707843.704
162,-1000.000,-28.320,-26.367,-1000.000,0.000,1731707843.708
163,-1000.000,-10.742,-26.855,-1000.000,0.000,1731707843.711
164,-1000.000,-11.230,-22.949,-1000.000,0.000,1731707843.715
165,-1000.000,-16.602,-20.508,-1000.000,0.000,1731707843.718
166,-1000.000,-17.578,-26.367,-1000.000,0.000,1731707843.722
167,-1000.000,-16.113,-23.926,-1000.000,0.000,1731707843.725
168,-1000.000,-14.160,-16.113,-1000.000,0.000,1731707843.732
169,-1000.000,-21.484,-22.949,-1000.000,0.000,1731707843.736
170,-1000.000,-31.250,-36.133,-1000.000,0.000,1731707843.739
171,-1000.000,-37.109,-33.203,-1000.000,0.000,1731707843.743
172,-1000.000,-41.504,-30.273,-1000.000,0.000,1731707843.746
173,-1000.000,-40.039,-33.203,-1000.000,0.000,1731707843.750
174,-1000.000,-34.668,-35.645,-1000.000,0.000,1731707843.754
175,-1000.000,-29.785,-38.086,-1000.000,0.000,1731707843.757
176,-1000.000,-31.250,-30.762,-1000.000,0.000,1731707843.761
177,-1000.000,-52.734,-25.879,-1000.000,0.000,1731707843.764
178,-1000.000,-50.781,-27.832,-1000.000,0.000,1731707843.768
179,-1000.000,-27.832,-30.273,-1000.000,0.000,1731707843.771
180,-1000.000,-17.578,-23.926,-1000.000,0.000,1731707843.778
181,-1000.000,-18.555,-16.602,-1000.000,0.000,1731707843.782
182,-1000.000,-22.461,-19.531,-1000.000,0.000,1731707843.785
183,-1000.000,-19.043,-18.555,-1000.000,0.000,1731707843.789
184,-1000.000,-17.578,-17.090,-1000.000,0.000,1731707843.792
185,-1000.000,-18.066,-15.625,-1000.000,0.000,1731707843.796
186,-1000.000,-20.508,-15.625,-1000.000,0.000,1731707843.799
187,-1000.000,-16.113,-24.414,-1000.000,0.000,1731707843.803
188,-1000.000,-17.090,-19.531,-1000.000,0.000,1731707843.806
189,-1000.000,-26.855,-11.719,-1000.000,0.000,1731707843.810
190,-1000.000,-7.812,-12.207,-1000.000,0.000,1731707843.814
191,-1000.000,-1.953,-14.648,-1000.000,0.000,1731707843.817
192,-1000.000,-11.719,-20.508,-1000.000,0.000,1731707843.824
193,-1000.000,-15.625,-17.578,-1000.000,0.000,1731707843.827
194,-1000.000,-13.672,-15.625,-1000.000,0.000,1731707843.831
195,-1000.000,-14.160,-19.043,-1000.000,0.000,1731707843.834
196,-1000.000,-18.066,-18.066,-1000.000,0.000,1731707843.838
197,-1000.000,-11.719,-13.672,-1000.000,0.000,1731707843.842
198,-1000.000,3.418,-12.207,-1000.000,0.000,1731707843.845
199,-1000.000,7.324,-12.695,-1000.000,0.000,1731707843.849
200,-1000.000,-30.273,-16.113,-1000.000,0.000,1731707843.852
201,-1000.000,-33.203,-20.508,-1000.000,0.000,1731707843.856
202,-1000.000,-5.859,-20.508,-1000.000,0.000,1731707843.859
203,-1000.000,-7.324,-24.414,-1000.000,0.000,1731707843.863
204,0.000,-12.695,-27.344,-1000.000,0.000,1731707843.870
205,0.000,-14.160,-27.832,-1000.000,0.000,1731707843.873
206,0.000,-11.719,-23.926,-1000.000,0.000,1731707843.877
207,0.000,-15.625,-21.484,-1000.000,0.000,1731707843.880
208,0.000,-20.996,-27.344,-1000.000,0.000,1731707843.884
209,0.000,-12.207,-26.855,-1000.000,0.000,1731707843.887
210,0.000,-0.488,-21.484,-1000.000,0.000,1731707843.891
211,0.000,-23.926,-23.438,-1000.000,0.000,1731707843.895
212,0.000,-44.434,-24.902,-1000.000,0.000,1731707843.898
213,0.000,-20.020,-21.973,-1000.000,0.000,1731707843.902
214,0.000,-11.230,-15.137,-1000.000,0.000,1731707843.905
215,0.000,-14.648,-11.719,-1000.000,0.000,1731707843.909
216,-929.199,-15.137,-14.160,-1000.000,0.000,1731707843.917
217,-1000.000,-8.789,-14.160,-1000.000,0.000,1731707843.920
218,-425.781,-8.301,-15.625,-1000.000,0.000,1731707843.924
219,952.637,-3.418,-11.230,-1000.000,0.000,1731707843.927
220,990.723,-4.883,-11.719,-1000.000,0.000,1731707843.931
221,926.270,-21.973,-23.926,-1000.000,0.000,1731707843.935
222,982.422,-19.043,-20.508,-1000.000,0.000,1731707843.938
223,970.215,-24.414,-17.578,-1000.000,0.000,1731707843.942
224,970.215,-36.621,-21.484,-1000.000,0.000,1731707843.945
225,970.215,-24.902,-24.414,-1000.000,0.000,1731707843.949
226,983.398,-18.066,-26.367,-1000.000,0.000,1731707843.953
227,907.715,-24.414,-21.973,-1000.000,0.000,1731707843.956
228,-946.777,-27.344,-21.484,-1000.000,0.000,1731707843.962
229,687.988,-28.809,-21.484,-1000.000,0.000,1731707843.966
230,-723.145,-31.738,-22.949,-1000.000,0.000,1731707843.969
231,-1000.000,-22.461,-20.020,-1000.000,0.000,1731707843.973
232,-939.941,-24.902,-20.020,-1000.000,0.000,1731707843.977
233,-1000.000,-30.273,-26.367,-1000.000,0.000,1731707843.980
234,-1000.000,-20.508,-31.738,-1000.000,0.000,1731707843.984
235,-1000.000,-16.113,-30.273,-1000.000,0.000,1731707843.987
236,-1000.000,-22.461,-22.949,-1000.000,0.000,1731707843.991
237,-1000.000,-27.344,-22.461,-1000.000,0.000,1731707843.995
238,-1000.000,-31.738,-25.391,-1000.000,0.000,1731707843.998
239,-1000.000,-32.227,-27.832,-1000.000,0.000,1731707844.002
240,-1000.000,-22.949,-28.320,-1000.000,0.000,1731707844.008
241,-1000.000,-22.949,-26.367,-1000.000,0.000,1731707844.011
242,-1000.000,-24.414,-20.996,-1000.000,0.000,1731707844.015
243,-1000.000,-21.484,-22.949,-1000.000,0.000,1731707844.019
244,-1000.000,-19.531,-23.926,-1000.000,0.000,1731707844.022
245,-1000.000,-18.555,-21.973,-1000.000,0.000,1731707844.026
246,-1000.000,-24.414,-27.344,-1000.000,0.000,1731707844.029
247,-1000.000,-31.738,-34.180,-1000.000,0.000,1731707844.033
248,-1000.000,-29.297,-33.203,-1000.000,0.000,1731707844.037
249,-1000.000,-23.926,-32.227,-1000.000,0.000,1731707844.040
250,-1000.000,-22.461,-29.785,-1000.000,0.000,1731707844.044
251,-1000.000,-22.461,-32.715,-1000.000,0.000,1731707844.047
252,-1000.000,-22.461,-39.551,-1000.000,0.000,1731707844.053
253,-1000.000,-24.414,-36.133,-1000.000,0.000,1731707844.057
254,-1000.000,-24.902,-35.645,-1000.000,0.000,1731707844.060
255,-1000.000,-31.738,-39.551,-1000.000,0.000,1731707844.064
256,-1000.000,-35.645,-40.039,-1000.000,0.000,1731707844.068
257,-1000.000,-27.344,-37.109,-1000.000,0.000,1731707844.071
258,-1000.000,-17.090,-33.203,-1000.000,0.000,1731707844.075
259,-1000.000,-20.020,-33.691,-1000.000,0.000,1731707844.079
260,-1000.000,-27.344,-32.227,-1000.000,0.000,1731707844.082
261,-1000.000,-21.484,-30.273,-1000.000,0.000,1731707844.086
262,-1000.000,-17.090,-28.809,-1000.000,0.000,1731707844.089
263,-1000.000,-19.043,-30.273,-1000.000,0.000,1731707844.093
264,-1000.000,-25.879,-35.156,-1000.000,0.000,1731707844.100
265,-1000.000,-26.367,-30.762,-1000.000,0.000,1731707844.104
266,-1000.000,-20.508,-22.949,-1000.000,0.000,1731707844.107
267,-1000.000,-21.973,-23.438,-1000.000,0.000,1731707844.111
268,-1000.000,-23.926,-31.738,-1000.000,0.000,1731707844.115
269,-1000.000,-15.625,-28.809,-1000.000,0.000,1731707844.118
270,-1000.000,-7.812,-21.973,-1000.000,0.000,1731707844.122
271,-1000.000,-12.695,-24.414,-1000.000,0.000,1731707844.126
272,-1000.000,-27.832,-20.508,-1000.000,0.000,1731707844.129
273,-1000.000,-39.551,-19.531,-1000.000,0.000,1731707844.133
274,-1000.000,-26.855,-18.066,-1000.000,0.000,1731707844.136
275,-1000.000,-27.344,-19.043,-1000.000,0.000,1731707844.140
276,0.000,-39.551,-23.438,-1000.000,0.000,1731707844.147
277,0.000,-29.785,-25.879,-1000.000,0.000,1731707844.150
278,0.000,-23.926,-25.391,-1000.000,0.000,1731707844.154
279,0.000,-26.855,-23.438,-1000.000,0.000,1731707844.158
280,0.000,-29.785,-28.320,-1000.000,0.000,1731707844.161
281,0.000,-24.902,-27.344,-1000.000,0.000,1731707844.165
282,0.000,-15.625,-24.902,-1000.000,0.000,1731707844.169
283,0.000,-15.625,-20.020,-1000.000,0.000,1731707844.172
284,0.000,-43.457,-15.137,-1000.000,0.000,1731707844.176
285,0.000,-56.152,-21.484,-1000.000,0.000,1731707844.180
286,0.000,-21.484,-19.531,-1000.000,0.000,1731707844.183
287,0.000,-12.695,-15.137,-1000.000,0.000,1731707844.187
288,-1000.000,-18.066,-18.555,-1000.000,0.000,1731707844.193
289,-1000.000,-20.996,-16.113,-1000.000,0.000,1731707844.197
290,-1000.000,-15.625,-15.137,-1000.000,0.000,1731707844.201
291,-1000.000,-7.324,-17.578,-1000.000,0.000,1731707844.204
292,-1000.000,-17.090,-18.066,-1000.000,0.000,1731707844.208
293,-1000.000,-21.484,-23.438,-1000.000,0.000,1731707844.212
294,-1000.000,-10.254,-25.391,-1000.000,0.000,1731707844.215
295,-1000.000,-8.789,-20.508,-1000.000,0.000,1731707844.219
296,-1000.000,-46.387,-23.438,-1000.000,0.000,1731707844.223
297,-1000.000,-52.734,-32.227,-1000.000,0.000,1731707844.226
298,-1000.000,-27.344,-26.367,-1000.000,0.000,1731707844.230
299,-1000.000,-22.949,-20.508,-1000.000,0.000,1731707844.234
300,0.000,-17.090,-24.902,-1000.000,0.000,1731707844.240
301,0.000,-20.020,-28.320,-1000.000,0.000,1731707844.244
302,0.000,-26.367,-31.250,-1000.000,0.000,1731707844.247
303,0.000,-19.531,-30.762,-1000.000,0.000,1731707844.251
304,0.000,-13.672,-27.344,-1000.000,0.000,1731707844.255
305,0.000,-17.578,-35.156,-1000.000,0.000,1731707844.258
306,0.000,-19.043,-35.645,-1000.000,0.000,1731707844.262
307,0.000,-32.715,-29.297,-1000.000,0.000,1731707844.266
308,0.000,-36.621,-26.855,-1000.000,0.000,1731707844.269
309,0.000,-25.879,-27.832,-1000.000,0.000,1731707844.273
310,0.000,-29.297,-32.715,-1000.000,0.000,1731707844.277
311,0.000,-20.020,-33.203,-1000.000,0.000,1731707844.280
312,-1000.000,-12.207,-26.855,-1000.000,0.000,1731707844.283
313,-1000.000,-13.672,-21.484,-1000.000,0.000,1731707844.287
314,-1000.000,-16.113,-23.438,-1000.000,0.000,1731707844.290
315,-1000.000,-16.602,-26.855,-1000.000,0.000,1731707844.294
316,-1000.000,-18.066,-25.879,-1000.000,0.000,1731707844.298
317,-1000.000,-11.230,-22.949,-1000.000,0.000,1731707844.301
318,-1000.000,-0.488,-24.414,-1000.000,0.000,1731707844.305
319,-1000.000,-37.109,-27.344,-1000.000,0.000,1731707844.309
320,-1000.000,-46.875,-28.809,-1000.000,0.000,1731707844.312
321,-1000.000,-14.648,-22.949,-1000.000,0.000,1731707844.316
322,-1000.000,-19.531,-23.438,-1000.000,0.000,1731707844.320
323,-1000.000,-28.809,-29.297,-1000.000,0.000,1731707844.323
324,-1000.000,-22.949,-31.250,-1000.000,0.000,1731707844.329
325,-372.559,-12.695,-28.809,-1000.000,0.000,1731707844.333
326,986.328,-5.371,-28.809,-1000.000,0.000,1731707844.337
327,-960.449,-9.766,-27.832,-1000.000,0.000,1731707844.341
328,-458.008,-26.855,-26.855,-1000.000,0.000,1731707844.344
329,-700.195,-22.461,-29.785,-1000.000,0.000,1731707844.348
330,914.062,-29.785,-30.273,-1000.000,0.000,1731707844.352
331,-968.262,-61.035,-32.715,-1000.000,0.000,1731707844.355
332,-300.781,-41.504,-30.273,-1000.000,0.000,1731707844.359
333,-1000.000,-26.855,-33.203,-1000.000,0.000,1731707844.363
334,3.906,-19.043,-33.203,-1000.000,0.000,1731707844.366
335,-783.691,-9.766,-25.879,-1000.000,0.000,1731707844.370
336,270.020,-17.578,-25.391,-1000.000,0.000,1731707844.376
337,-1000.000,-25.391,-29.297,-1000.000,0.000,1731707844.380
338,-240.723,-13.184,-23.926,-1000.000,0.000,1731707844.383
339,-827.148,-8.301,-19.531,-1000.000,0.000,1731707844.387
340,692.871,-25.391,-20.996,-1000.000,0.000,1731707844.391
341,-915.039,-29.785,-26.367,-1000.000,0.000,1731707844.394
342,-261.719,-35.156,-35.156,-1000.000,0.000,1731707844.398
343,-952.637,-28.320,-37.598,-1000.000,0.000,1731707844.402
344,-873.535,-12.207,-35.645,-1000.000,0.000,1731707844.405
345,-86.426,-17.578,-34.180,-1000.000,0.000,1731707844.409
346,-593.262,-17.578,-37.598,-1000.000,0.000,1731707844.413
347,851.074,-14.648,-35.645,-1000.000,0.000,1731707844.416
348,-843.262,-16.113,-28.809,-1000.000,0.000,1731707844.422
349,471.680,-19.043,-28.809,-1000.000,0.000,1731707844.426
350,-978.516,-26.367,-26.367,-1000.000,0.000,1731707844.430
351,-41.504,-20.508,-26.855,-1000.000,0.000,1731707844.433
352,-843.262,-8.789,-25.879,-1000.000,0.000,1731707844.437
353,851.562,-29.297,-27.832,-1000.000,0.000,1731707844.441
354,776.855,-41.992,-33.203,-1000.000,0.000,1731707844.444
355,917.480,-20.996,-34.668,-1000.000,0.000,1731707844.448
356,-903.809,-19.043,-36.621,-1000.000,0.000,1731707844.452
357,108.887,-32.227,-34.180,-1000.000,0.000,1731707844.455
358,-1000.000,-34.180,-29.297,-1000.000,0.000,1731707844.459
359,-177.734,-14.160,-33.203,-1000.000,0.000,1731707844.463
360,-937.500,-2.441,-32.227,-1000.000,0.000,1731707844.469
361,966.797,-11.719,-27.832,-1000.000,0.000,1731707844.473
362,780.762,-19.043,-29.297,-1000.000,0.000,1731707844.477
363,868.652,-15.625,-28.320,-1000.000,0.000,1731707844.481
364,919.922,-12.695,-31.738,-1000.000,0.000,1731707844.484
365,-865.234,-19.531,-31.250,-1000.000,0.000,1731707844.488
366,369.141,-19.531,-35.156,-1000.000,0.000,1731707844.492
367,-902.344,-23.438,-37.598,-1000.000,0.000,1731707844.495
368,355.957,-23.438,-27.344,-1000.000,0.000,1731707844.499
369,-857.910,-26.367,-23.926,-1000.000,0.000,1731707844.503
370,931.152,-25.391,-22.949,-1000.000,0.000,1731707844.506
371,-294.434,-20.020,-22.461,-1000.000,0.000,1731707844.510
372,-20.996,-19.531,-21.484,-1000.000,0.000,1731707844.517
373,-861.816,-13.672,-18.066,-1000.000,0.000,1731707844.520
374,925.293,-10.742,-18.555,-1000.000,0.000,1731707844.524
375,961.426,-19.043,-29.785,-1000.000,0.000,1731707844.528
376,971.191,-25.391,-33.691,-1000.000,0.000,1731707844.531
377,897.949,-19.043,-26.367,-1000.000,0.000,1731707844.535
378,-821.777,-18.066,-26.855,-1000.000,0.000,1731707844.539
379,41.016,-29.297,-32.227,-1000.000,0.000,1731707844.542
380,-547.852,-46.387,-28.320,-1000.000,0.000,1731707844.546
381,861.816,-41.504,-21.484,-1000.000,0.000,1731707844.550
382,-850.586,-25.879,-20.020,-1000.000,0.000,1731707844.554
383,610.840,-28.809,-20.020,-1000.000,0.000,1731707844.557
384,-649.414,-34.668,-20.508,-1000.000,0.000,1731707844.564
385,289.062,-23.926,-25.391,-1000.000,0.000,1731707844.567
386,-845.703,-10.254,-26.367,-1000.000,0.000,1731707844.571
387,881.348,-13.672,-27.344,-1000.000,0.000,1731707844.575
388,920.898,-20.020,-28.809,-1000.000,0.000,1731707844.578
389,939.453,-13.184,-25.879,-1000.000,0.000,1731707844.582
390,960.449,-12.207,-24.414,-1000.000,0.000,1731707844.586
391,-937.500,-21.973,-29.297,-1000.000,0.000,1731707844.590
392,-291.504,-36.621,-34.180,-1000.000,0.000,1731707844.593
393,-316.406,-32.227,-31.250,-1000.000,0.000,1731707844.597
394,-996.582,-18.555,-27.344,-1000.000,0.000,1731707844.601
395,-848.633,-20.508,-26.367,-1000.000,0.000,1731707844.604
396,0.000,-31.250,-31.738,-1000.000,0.000,1731707844.611
397,0.000,-35.156,-35.156,-1000.000,0.000,1731707844.614
398,0.000,-23.438,-25.391,-1000.000,0.000,1731707844.618
399,0.000,-14.648,-16.113,-1000.000,0.000,1731707844.622
400,0.000,-14.160,-23.438,-1000.000,0.000,1731707844.625
401,0.000,-15.137,-26.367,-1000.000,0.000,1731707844.629
402,0.000,-13.184,-24.902,-1000.000,0.000,1731707844.633
403,0.000,-18.066,-27.832,-1000.000,0.000,1731707844.637
404,0.000,-35.156,-31.738,-1000.000,0.000,1731707844.640
405,0.000,-36.621,-36.133,-1000.000,0.000,1731707844.644
406,0.000,-33.691,-28.809,-1000.000,0.000,1731707844.648
407,0.000,-34.668,-17.578,-1000.000,0.000,1731707844.651
408,-1000.000,-34.180,-21.973,-1000.000,0.000,1731707844.657
409,-1000.000,-33.203,-26.855,-1000.000,0.000,1731707844.661
410,-1000.000,-30.273,-26.855,-1000.000,0.000,1731707844.665
411,-1000.000,-31.738,-24.902,-1000.000,0.000,1731707844.669
412,-1000.000,-32.227,-22.949,-1000.000,0.000,1731707844.672
413,-1000.000,-30.762,-25.391,-1000.000,0.000,1731707844.676
414,-1000.000,-20.020,-21.973,-1000.000,0.000,1731707844.680
415,-1000.000,-40.527,-20.020,-1000.000,0.000,1731707844.683
416,-1000.000,-46.875,-22.949,-1000.000,0.000,1731707844.687
417,-945.312,-22.949,-23.926,-1000.000,0.000,1731707844.691
418,-1000.000,-23.926,-23.926,-1000.000,0.000,1731707844.695
419,-870.605,-23.926,-18.066,-1000.000,0.000,1731707844.698
420,708.496,-15.137,-19.531,-1000.000,0.000,1731707844.704
421,557.617,-15.137,-27.832,-1000.000,0.000,1731707844.708
422,-1000.000,-24.902,-29.785,-1000.000,0.000,1731707844.711
423,-372.559,-18.066,-26.367,-1000.000,0.000,1731707844.715
424,-981.445,-10.742,-20.508,-1000.000,0.000,1731707844.719
425,-984.375,-8.301,-15.625,-1000.000,0.000,1731707844.723
426,643.066,-39.062,-20.996,-1000.000,0.000,1731707844.726
427,721.191,-72.754,-26.855,-1000.000,0.000,1731707844.730
428,948.730,-34.180,-20.996,-1000.000,0.000,1731707844.734
429,-898.926,-16.113,-19.043,-1000.000,0.000,1731707844.738
430,496.094,-23.926,-27.832,-1000.000,0.000,1731707844.741
431,-981.445,-30.762,-32.227,-1000.000,0.000,1731707844.745
432,97.656,-23.926,0.000,-1000.000,0.000,1731707844.751
433,-859.863,-24.414,0.000,-1000.000,0.000,1731707844.754
434,904.785,-31.250,0.000,-1000.000,0.000,1731707844.758
435,965.332,-22.461,0.000,-1000.000,0.000,1731707844.762
436,971.191,-15.137,0.000,-1000.000,0.000,1731707844.765
437,970.215,-11.230,0.000,-1000.000,0.000,1731707844.769
438,969.727,-30.273,0.000,-1000.000,0.000,1731707844.773
439,974.609,-37.109,0.000,-1000.000,0.000,1731707844.777
440,931.641,-22.461,0.000,-1000.000,0.000,1731707844.780
441,976.074,-28.809,0.000,-1000.000,0.000,1731707844.784
442,970.215,-28.320,0.000,-1000.000,0.000,1731707844.788
443,-371.094,-29.297,0.000,-1000.000,0.000,1731707844.792
444,-1000.000,-27.832,-25.879,-1000.000,0.000,1731707844.797
445,290.039,-20.020,-26.855,-1000.000,0.000,1731707844.801
446,-779.785,-15.625,-26.855,-1000.000,0.000,1731707844.805
447,261.230,-18.066,-24.414,-1000.000,0.000,1731707844.808
448,-1000.000,-25.391,-28.320,-1000.000,0.000,1731707844.812
449,-292.969,-37.598,-26.367,-1000.000,0.000,1731707844.816
450,-800.293,-48.828,-23.438,-1000.000,0.000,1731707844.819
451,368.164,-36.133,-26.367,-1000.000,0.000,1731707844.823
452,-999.512,-29.297,-28.809,-1000.000,0.000,1731707844.827
453,-1000.000,-23.926,-25.879,-1000.000,0.000,1731707844.831
454,269.531,-16.602,-18.066,-1000.000,0.000,1731707844.834
455,891.602,-12.695,-20.508,-1000.000,0.000,1731707844.838
456,-856.445,-19.043,-26.367,-1000.000,0.000,1731707844.844
457,-596.191,-20.508,-30.273,-1000.000,0.000,1731707844.848
458,900.879,-4.883,-20.020,-1000.000,0.000,1731707844.852
459,-843.262,-6.836,-19.531,-1000.000,0.000,1731707844.856
460,12.207,-19.531,-25.879,-1000.000,0.000,1731707844.859
461,-1000.000,-20.996,-24.414,-1000.000,0.000,1731707844.863
462,328.125,-5.859,-27.832,-1000.000,0.000,1731707844.867
463,-765.625,2.930,-24.414,-1000.000,0.000,1731707844.871
464,153.809,-12.695,-21.973,-1000.000,0.000,1731707844.874
465,-1000.000,-31.250,-24.902,-1000.000,0.000,1731707844.878
466,-367.676,-17.578,-20.508,-1000.000,0.000,1731707844.882
467,-864.258,3.418,-16.602,-1000.000,0.000,1731707844.885
468,0.000,-2.441,0.000,-1000.000,0.000,1731707844.892
469,0.000,-19.531,0.000,-1000.000,0.000,1731707844.895
470,0.000,-24.414,0.000,-1000.000,0.000,1731707844.899
471,0.000,-13.184,0.000,-1000.000,0.000,1731707844.903
472,0.000,-11.230,0.000,-1000.000,0.000,1731707844.907
473,0.000,-15.625,0.000,-1000.000,0.000,1731707844.910
474,0.000,-14.160,0.000,-1000.000,0.000,1731707844.914
475,0.000,-7.812,0.000,-1000.000,0.000,1731707844.918
476,0.000,-14.648,0.000,-1000.000,0.000,1731707844.922
477,0.000,-30.273,0.000,-1000.000,0.000,1731707844.925
478,0.000,-13.672,0.000,-1000.000,0.000,1731707844.929
479,0.000,-2.441,0.000,-1000.000,0.000,1731707844.933
480,-826.172,-5.859,-14.648,-1000.000,0.000,1731707844.939
481,191.895,-16.602,-10.254,-1000.000,0.000,1731707844.942
482,-1000.000,-18.555,-12.207,-1000.000,0.000,1731707844.946
483,-217.773,-1.953,-9.766,-1000.000,0.000,1731707844.950
484,-841.309,-4.883,-8.301,-1000.000,0.000,1731707844.954
485,644.043,-15.625,-8.301,-1000.000,0.000,1731707844.957
486,-766.113,-7.812,-12.207,-1000.000,0.000,1731707844.961
487,-1000.000,-11.230,-17.578,-1000.000,0.000,1731707844.965
488,195.801,-41.504,-26.855,-1000.000,0.000,1731707844.969
489,-870.117,-44.922,-30.273,-1000.000,0.000,1731707844.972
490,-184.082,-29.297,-25.879,-1000.000,0.000,1731707844.976
491,-1000.000,-29.297,-26.367,-1000.000,0.000,1731707844.980
492,-87.402,-18.555,-28.320,-1000.000,0.000,1731707844.986
493,-796.875,-19.043,-20.996,-1000.000,0.000,1731707844.989
494,211.914,-28.809,-15.625,-1000.000,0.000,1731707844.993
495,-1000.000,-30.273,-31.250,-1000.000,0.000,1731707844.997
496,-371.094,-28.320,-34.180,-1000.000,0.000,1731707845.001
497,-889.160,-22.949,-28.320,-1000.000,0.000,1731707845.004
498,678.223,-18.555,-32.227,-1000.000,0.000,1731707845.008
499,-859.863,-40.527,-25.879,-1000.000,0.000,1731707845.012
500,-973.633,-57.617,-28.320,-1000.000,0.000,1731707845.016
501,655.273,-27.832,-27.344,-1000.000,0.000,1731707845.019
502,780.762,-22.461,-21.484,-1000.000,0.000,1731707845.023
503,-744.141,-37.598,-22.461,-1000.000,0.000,1731707845.027
504,-1000.000,-34.180,-21.484,-1000.000,0.000,1731707845.033
505,0.000,-17.090,-20.996,-1000.000,0.000,1731707845.036
506,-846.680,-10.254,-21.973,-1000.000,0.000,1731707845.040
507,-59.570,-25.879,-25.879,-1000.000,0.000,1731707845.044
508,-1000.000,-31.738,-25.391,-1000.000,0.000,1731707845.048
509,-177.246,-8.789,-23.926,-1000.000,0.000,1731707845.051
510,-823.730,3.906,-22.949,-1000.000,0.000,1731707845.055
511,125.000,-16.602,-19.043,-1000.000,0.000,1731707845.059
512,-1000.000,-31.738,-17.578,-1000.000,0.000,1731707845.063
513,-387.695,-17.090,-19.043,-1000.000,0.000,1731707845.066
514,-867.676,-8.789,-22.461,-1000.000,0.000,1731707845.070
515,406.738,-24.902,-18.555,-1000.000,0.000,1731707845.074
516,-1000.000,-41.504,-15.137,-1000.000,0.000,1731707845.079
517,-944.824,-35.645,-14.160,-1000.000,0.000,1731707845.083
518,402.832,-13.184,-16.113,-1000.000,0.000,1731707845.087
519,-764.648,-9.277,-18.066,-1000.000,0.000,1731707845.091
520,-261.719,-33.203,-18.066,-1000.000,0.000,1731707845.094
521,-562.500,-39.551,-14.648,-1000.000,0.000,1731707845.098
522,982.910,-34.668,-12.207,-1000.000,0.000,1731707845.102
523,-994.141,-39.062,-19.043,-1000.000,0.000,1731707845.106
524,921.387,-20.996,-33.203,-929.688,0.000,1731707845.109
525,982.910,-16.602,-28.320,-1000.000,0.000,1731707845.113
526,970.215,-23.438,-16.113,-545.410,0.000,1731707845.117
527,969.727,-15.137,-11.230,867.676,0.000,1731707845.121
528,970.215,-15.625,-12.207,-985.840,0.000,1731707845.126
529,969.727,-17.090,-16.602,915.527,0.000,1731707845.130
530,969.727,-0.977,-23.926,983.887,0.000,1731707845.133
531,969.727,-1.953,-23.926,970.703,0.000,1731707845.137
532,970.215,-17.578,-13.184,970.215,0.000,1731707845.141
533,970.215,-17.090,-16.113,970.703,0.000,1731707845.145
534,969.727,-22.949,-19.531,970.703,0.000,1731707845.148
535,969.727,-31.250,-16.602,970.215,0.000,1731707845.152
536,969.727,-33.691,-23.438,970.703,0.000,1731707845.156
537,969.727,-30.273,-35.156,970.703,0.000,1731707845.160
538,969.727,-27.832,-30.273,970.215,0.000,1731707845.163
539,970.215,-33.691,-15.625,970.215,0.000,1731707845.167
540,970.215,-34.180,-12.695,970.703,0.000,1731707845.172
541,969.727,-30.273,-20.508,970.703,0.000,1731707845.176
542,969.727,-15.625,-22.461,970.703,0.000,1731707845.180
543,969.727,-21.484,-18.066,970.703,0.000,1731707845.184
544,969.727,-30.273,-21.973,970.703,0.000,1731707845.187
545,969.727,-20.996,-24.902,970.703,0.000,1731707845.191
546,969.727,-31.738,-24.414,970.703,0.000,1731707845.195
547,969.727,-33.691,-18.066,970.703,0.000,1731707845.199
548,969.727,-26.855,-19.531,970.215,0.000,1731707845.203
549,969.727,-21.973,-29.785,970.215,0.000,1731707845.206
550,969.727,-19.043,-34.180,970.703,0.000,1731707845.210
551,969.727,-20.508,-29.785,970.703,0.000,1731707845.214
552,969.727,-25.391,-20.996,970.703,0.000,1731707845.220
553,969.727,-26.855,-25.879,970.703,0.000,1731707845.223
554,970.215,-23.438,-28.809,970.703,0.000,1731707845.227
555,970.215,-14.160,-15.137,970.215,0.000,1731707845.231
556,969.727,-11.230,-11.230,970.703,0.000,1731707845.235
557,969.727,-20.996,-21.484,970.703,0.000,1731707845.239
558,970.215,-19.043,-24.414,970.703,0.000,1731707845.242
559,970.215,-11.230,-20.996,970.703,0.000,1731707845.246
560,969.727,-13.184,-21.484,970.703,0.000,1731707845.250
561,970.215,-20.996,-14.160,970.703,0.000,1731707845.254
562,970.215,-14.648,-11.719,970.703,0.000,1731707845.257
563,969.727,-5.859,-20.020,970.703,0.000,1731707845.261
564,969.727,-4.395,-20.508,970.215,0.000,1731707845.267
565,970.215,-9.277,-10.254,970.703,0.000,1731707845.271
566,969.727,-16.602,-8.301,970.703,0.000,1731707845.274
567,969.727,-15.137,-5.859,970.703,0.000,1731707845.278
568,969.727,-14.160,-4.883,970.703,0.000,1731707845.282
569,969.727,-3.906,-8.301,970.703,0.000,1731707845.286
570,969.727,-4.883,-7.812,970.703,0.000,1731707845.290
571,970.215,-19.043,-10.742,970.703,0.000,1731707845.293
572,969.727,-34.180,-11.230,970.215,0.000,1731707845.297
573,969.727,-40.039,-20.508,970.215,0.000,1731707845.301
574,970.215,-19.531,-24.902,970.703,0.000,1731707845.305
575,970.215,-19.531,-15.137,970.703,0.000,1731707845.308
576,969.727,-25.391,-15.625,970.703,0.000,1731707845.314
577,969.727,-25.391,-16.113,970.703,0.000,1731707845.318
578,969.727,-26.855,-9.766,970.215,0.000,1731707845.322
579,970.215,-23.926,-5.371,970.215,0.000,1731707845.325
580,969.727,-16.602,-8.789,970.703,0.000,1731707845.329
581,970.215,-2.441,-16.113,970.703,0.000,1731707845.333
582,970.215,10.254,-22.949,970.703,0.000,1731707845.337
583,970.215,0.000,-19.531,970.703,0.000,1731707845.340
584,970.215,-27.344,-12.695,970.703,0.000,1731707845.344
585,969.727,-21.484,-20.020,970.215,0.000,1731707845.348
586,969.727,-6.348,-26.367,970.703,0.000,1731707845.352
587,969.727,-13.184,-27.832,970.703,0.000,1731707845.356
588,0.000,-17.090,-31.250,970.703,0.000,1731707845.361
589,0.000,-23.926,-35.156,970.703,0.000,1731707845.365
590,0.000,-20.508,-24.902,970.703,0.000,1731707845.369
591,0.000,-26.367,-20.020,970.703,0.000,1731707845.372
592,0.000,-33.203,-27.832,970.703,0.000,1731707845.376
593,0.000,-26.367,-30.273,970.703,0.000,1731707845.380
594,0.000,-10.254,-31.738,970.703,0.000,1731707845.384
595,0.000,-36.133,-35.645,970.703,0.000,1731707845.387
596,0.000,-67.871,-30.762,970.215,0.000,1731707845.391
597,0.000,-30.273,-28.809,970.215,0.000,1731707845.395
598,0.000,-13.672,-28.809,970.703,0.000,1731707845.399
599,0.000,-15.137,-23.438,970.703,0.000,1731707845.403
600,969.727,-16.113,-26.367,970.703,0.000,1731707845.408
601,969.727,-23.926,-28.809,970.703,0.000,1731707845.412
602,969.727,-21.484,-26.367,970.703,0.000,1731707845.415
603,969.727,-19.043,-23.926,970.703,0.000,1731707845.419
604,970.215,-26.855,-22.949,970.703,0.000,1731707845.423
605,970.215,-25.391,-23.926,970.703,0.000,1731707845.427
606,969.727,-11.719,-22.461,970.215,0.000,1731707845.431
607,969.727,-25.879,-21.973,970.703,0.000,1731707845.434
608,969.727,-36.133,-25.391,970.703,0.000,1731707845.438
609,969.727,-24.902,-24.902,970.703,0.000,1731707845.442
610,969.727,-20.508,-22.461,970.215,0.000,1731707845.446
611,969.727,-16.113,-18.555,970.703,0.000,1731707845.449
612,0.000,-20.020,-17.090,970.215,0.000,1731707845.455
613,0.000,-23.438,-18.066,970.703,0.000,1731707845.458
614,0.000,-23.926,-19.531,970.703,0.000,1731707845.462
615,0.000,-16.113,-18.066,970.703,0.000,1731707845.466
616,0.000,-18.066,-18.555,970.703,0.000,1731707845.470
617,0.000,-16.602,-20.020,970.703,0.000,1731707845.474
618,0.000,-27.344,-24.902,970.703,0.000,1731707845.477
619,0.000,-54.688,-25.879,970.703,0.000,1731707845.481
620,0.000,-36.133,-20.508,970.703,0.000,1731707845.485
621,0.000,-25.879,-20.996,970.703,0.000,1731707845.489
622,0.000,-27.344,-26.855,970.703,0.000,1731707845.493
623,0.000,-19.531,-30.762,970.703,0.000,1731707845.496
624,969.727,-16.113,-27.832,970.703,0.000,1731707845.501
625,969.727,-14.648,-23.926,970.703,0.000,1731707845.505
626,969.727,-16.113,-22.949,970.703,0.000,1731707845.509
627,970.215,-18.066,-29.785,970.703,0.000,1731707845.513
628,969.727,-18.066,-26.855,970.703,0.000,1731707845.517
629,969.727,-14.648,-25.879,970.703,0.000,1731707845.520
630,969.727,-43.945,-34.180,970.215,0.000,1731707845.524
631,970.215,-49.805,-33.203,970.215,0.000,1731707845.528
632,969.727,-15.625,-28.809,970.703,0.000,1731707845.532
633,970.215,-19.531,-32.227,970.703,0.000,1731707845.536
634,970.215,-24.414,-36.133,970.215,0.000,1731707845.539
635,969.727,-24.414,-35.645,970.215,0.000,1731707845.543
636,969.727,-23.926,-37.109,970.703,0.000,1731707845.548
637,969.727,-16.602,-33.203,970.703,0.000,1731707845.552
638,969.727,-16.113,-31.738,970.703,0.000,1731707845.556
639,970.215,-20.020,-37.109,970.215,0.000,1731707845.559
640,970.215,-17.090,-41.016,970.215,0.000,1731707845.563
641,970.215,-27.344,-37.598,970.703,0.000,1731707845.567
642,970.215,-47.363,-35.156,970.703,0.000,1731707845.571
643,969.727,-27.832,-38.086,970.703,0.000,1731707845.575
644,969.727,-16.602,-35.645,970.215,0.000,1731707845.578
645,969.727,-18.066,-35.156,970.215,0.000,1731707845.582
646,969.727,-15.625,-31.250,970.703,0.000,1731707845.586
647,969.727,-13.672,-31.250,970.215,0.000,1731707845.590
648,0.000,-17.090,-38.086,970.703,0.000,1731707845.595
649,0.000,-24.902,-35.645,970.703,0.000,1731707845.599
650,0.000,-16.113,-28.809,970.215,0.000,1731707845.603
651,0.000,-16.113,-24.414,970.703,0.000,1731707845.607
652,0.000,-21.973,-24.414,970.703,0.000,1731707845.610
653,0.000,-21.484,-29.785,970.703,0.000,1731707845.614
654,0.000,-16.602,-31.738,970.703,0.000,1731707845.618
655,0.000,-14.160,-35.645,970.703,0.000,1731707845.622
656,0.000,-23.926,-37.598,970.703,0.000,1731707845.626
657,0.000,-51.758,-35.645,970.703,0.000,1731707845.629
658,0.000,-44.922,-34.180,970.703,0.000,1731707845.633
659,0.000,-23.926,-35.645,970.703,0.000,1731707845.637
660,969.727,-38.086,-41.504,970.703,0.000,1731707845.641
661,969.727,-45.898,-45.898,970.703,0.000,1731707845.644
662,969.727,-31.738,-40.039,970.703,0.000,1731707845.648
663,969.727,-21.484,-39.062,970.703,0.000,1731707845.652
664,970.215,-29.785,-46.875,970.703,0.000,1731707845.656
665,972.168,-33.691,-54.199,970.703,0.000,1731707845.660
666,905.273,-29.297,-51.758,970.703,0.000,1731707845.663
667,-891.113,-30.762,-41.016,970.703,0.000,1731707845.667
668,212.891,-46.875,-41.504,970.703,0.000,1731707845.671
669,-1000.000,-59.570,-42.969,970.703,0.000,1731707845.675
670,-988.281,-39.551,-34.668,984.375,0.000,1731707845.679
671,-971.191,-26.855,-29.785,899.414,0.000,1731707845.682
672,-1000.000,-29.785,-31.738,-914.551,0.000,1731707845.688
673,-1000.000,-46.387,-36.133,550.781,0.000,1731707845.692
674,-1000.000,-52.246,-34.668,-877.441,0.000,1731707845.695
675,-1000.000,-43.945,-37.598,-1000.000,0.000,1731707845.699
676,-1000.000,-43.457,-40.039,-945.312,0.000,1731707845.703
677,-1000.000,-41.992,-41.992,-1000.000,0.000,1731707845.707
678,-1000.000,-38.086,-45.898,-1000.000,0.000,1731707845.711
679,-1000.000,-28.320,-40.527,-1000.000,0.000,1731707845.714
680,-1000.000,-54.688,-38.086,-1000.000,0.000,1731707845.718
681,-1000.000,-64.941,-40.527,-1000.000,0.000,1731707845.722
682,-1000.000,-35.156,-38.574,-1000.000,0.000,1731707845.726
683,-1000.000,-25.879,-35.156,-1000.000,0.000,1731707845.730
684,-1000.000,-25.879,-32.227,-1000.000,0.000,1731707845.735
685,-1000.000,-29.785,-29.785,-1000.000,0.000,1731707845.739
686,-1000.000,-29.297,-35.156,-1000.000,0.000,1731707845.742
687,-1000.000,-32.227,-38.574,-1000.000,0.000,1731707845.746
688,-1000.000,-25.879,-35.156,-1000.000,0.000,1731707845.750
689,-1000.000,-15.625,-31.738,-1000.000,0.000,1731707845.754
690,-1000.000,-13.184,-28.809,-1000.000,0.000,1731707845.758
691,-1000.000,-33.203,-31.738,-1000.000,0.000,1731707845.761
692,-1000.000,-46.875,-33.203,-1000.000,0.000,1731707845.765
693,-1000.000,-25.391,-31.250,-1000.000,0.000,1731707845.769
694,-1000.000,-22.949,-29.297,-1000.000,0.000,1731707845.773
695,-1000.000,-24.902,-28.809,-1000.000,0.000,1731707845.777
696,-1000.000,-16.113,-27.344,-1000.000,0.000,1731707845.782
697,-1000.000,-13.672,-23.926,-1000.000,0.000,1731707845.786
698,-1000.000,-12.207,-25.879,-1000.000,0.000,1731707845.789
699,-1000.000,-10.742,-29.785,-1000.000,0.000,1731707845.793
700,-1000.000,-19.043,-32.227,-1000.000,0.000,1731707845.797
701,-1000.000,-19.531,-31.250,-1000.000,0.000,1731707845.801
702,-1000.000,-13.672,-29.785,-1000.000,0.000,1731707845.805
703,-1000.000,-36.621,-30.762,-1000.000,0.000,1731707845.808
704,-1000.000,-44.434,-35.156,-1000.000,0.000,1731707845.812
705,-1000.000,-19.043,-35.156,-1000.000,0.000,1731707845.816
706,-1000.000,-17.578,-30.273,-1000.000,0.000,1731707845.820
707,-1000.000,-19.531,-32.715,-1000.000,0.000,1731707845.823
708,-1000.000,-16.113,-34.180,-1000.000,0.000,1731707845.829
709,-1000.000,-16.602,-29.785,-1000.000,0.000,1731707845.832
710,-1000.000,-19.531,-26.855,-1000.000,0.000,1731707845.836
711,-1000.000,-20.508,-28.809,-1000.000,0.000,1731707845.840
712,-1000.000,-23.926,-32.715,-1000.000,0.000,1731707845.844
713,-1000.000,-20.996,-33.691,-1000.000,0.000,1731707845.848
714,-1000.000,-24.902,-30.762,-1000.000,0.000,1731707845.851
715,-1000.000,-38.086,-31.738,-1000.000,0.000,1731707845.855
716,-1000.000,-27.344,-37.598,-1000.000,0.000,1731707845.859
717,-1000.000,-21.484,-38.574,-1000.000,0.000,1731707845.863
718,-1000.000,-22.461,-30.273,-1000.000,0.000,1731707845.867
719,-1000.000,-19.531,-24.902,-1000.000,0.000,1731707845.870
720,-1000.000,-19.043,-29.297,-1000.000,0.000,1731707845.875
721,-1000.000,-19.043,-30.273,-1000.000,0.000,1731707845.879
722,-1000.000,-10.742,-24.414,-1000.000,0.000,1731707845.883
723,-1000.000,-10.742,-22.949,-1000.000,0.000,1731707845.887
724,-1000.000,-17.578,-20.508,-1000.000,0.000,1731707845.891
725,-1000.000,-13.184,-20.020,-1000.000,0.000,1731707845.894
726,-1000.000,-13.672,-18.555,-1000.000,0.000,1731707845.898
727,-1000.000,-7.812,-15.625,-1000.000,0.000,1731707845.902
728,-1000.000,-4.395,-22.949,-1000.000,0.000,1731707845.906
729,-1000.000,-9.766,-24.902,-1000.000,0.000,1731707845.910
730,-1000.000,-6.836,-20.020,-1000.000,0.000,1731707845.913
731,-1000.000,-10.742,-17.578,-1000.000,0.000,1731707845.917
732,-1000.000,-7.324,-17.578,-1000.000,0.000,1731707845.922
733,-1000.000,-8.789,-24.414,-1000.000,0.000,1731707845.926
734,-1000.000,-14.648,-28.320,-1000.000,0.000,1731707845.930
735,-1000.000,-11.230,-25.879,-1000.000,0.000,1731707845.934
736,-1000.000,-8.789,-29.785,-1000.000,0.000,1731707845.937
737,-1000.000,-21.484,-30.762,-1000.000,0.000,1731707845.941
738,-1000.000,-30.273,-30.762,-1000.000,0.000,1731707845.945
739,-1000.000,-16.602,-32.715,-1000.000,0.000,1731707845.949
740,-1000.000,-17.578,-28.320,-1000.000,0.000,1731707845.953
741,-1000.000,-21.973,-28.809,-1000.000,0.000,1731707845.956
742,-1000.000,-22.461,-33.691,-1000.000,0.000,1731707845.960
743,-1000.000,-20.508,-30.273,-1000.000,0.000,1731707845.964
744,0.000,-13.184,-21.973,-1000.000,0.000,1731707845.969
745,0.000,-12.207,-20.020,-1000.000,0.000,1731707845.973
746,0.000,-14.648,-21.973,-1000.000,0.000,1731707845.977
747,0.000,-12.207,-23.438,-1000.000,0.000,1731707845.981
748,0.000,-10.254,-25.391,-1000.000,0.000,1731707845.985
749,0.000,-14.160,-28.320,-1000.000,0.000,1731707845.988
750,0.000,-13.672,-32.227,-1000.000,0.000,1731707845.992
751,0.000,-6.836,-28.809,-1000.000,0.000,1731707845.996
752,0.000,-7.324,-25.391,-1000.000,0.000,1731707846.000
753,0.000,-27.344,-27.344,-1000.000,0.000,1731707846.004
754,0.000,-28.809,-25.879,-1000.000,0.000,1731707846.007
755,0.000,-18.555,-23.926,-1000.000,0.000,1731707846.011
756,-1000.000,-20.020,-25.391,-1000.000,0.000,1731707846.017
757,-1000.000,-18.555,-21.973,-1000.000,0.000,1731707846.020
758,-1000.000,-20.996,-18.066,-1000.000,0.000,1731707846.024
759,-1000.000,-22.461,-21.484,-1000.000,0.000,1731707846.028
760,-1000.000,-20.996,-19.043,-1000.000,0.000,1731707846.032
761,-1000.000,-11.230,-13.184,-1000.000,0.000,1731707846.036
762,-1000.000,-13.672,-19.531,-1000.000,0.000,1731707846.039
763,-1000.000,-19.043,-29.297,-1000.000,0.000,1731707846.043
764,-1000.000,-39.551,-28.809,-1000.000,0.000,1731707846.047
765,-1000.000,-56.641,-21.973,-1000.000,0.000,1731707846.051
766,-1000.000,-23.438,-20.996,-1000.000,0.000,1731707846.055
767,-1000.000,-12.207,-22.461,-1000.000,0.000,1731707846.058
768,-1000.000,-17.578,-21.973,-1000.000,0.000,1731707846.064
769,-1000.000,-16.113,-20.020,-1000.000,0.000,1731707846.067
770,-1000.000,-15.625,-18.555,-1000.000,0.000,1731707846.071
771,-1000.000,-20.508,-24.414,-1000.000,0.000,1731707846.075
772,-1000.000,-23.438,-24.414,-1000.000,0.000,1731707846.079
773,-1000.000,-17.090,-19.531,-1000.000,0.000,1731707846.083
774,-1000.000,-13.184,-21.484,-1000.000,0.000,1731707846.086
775,-1000.000,-24.902,-26.367,-1000.000,0.000,1731707846.090
776,-1000.000,-55.664,-27.832,-1000.000,0.000,1731707846.094
777,-1000.000,-44.922,-23.438,-1000.000,0.000,1731707846.098
778,-1000.000,-14.648,-22.461,-1000.000,0.000,1731707846.102
779,-1000.000,-15.625,-22.461,-1000.000,0.000,1731707846.105
780,0.000,-18.555,-20.508,-1000.000,0.000,1731707846.111
781,0.000,-20.020,-22.949,-1000.000,0.000,1731707846.114
782,0.000,-11.719,-16.113,-1000.000,0.000,1731707846.118
783,0.000,-15.137,-12.207,-1000.000,0.000,1731707846.122
784,0.000,-22.949,-14.648,-1000.000,0.000,1731707846.126
785,0.000,-19.043,-19.531,-1000.000,0.000,1731707846.130
786,0.000,-12.695,-19.043,-1000.000,0.000,1731707846.133
787,0.000,-16.113,-20.508,-1000.000,0.000,1731707846.137
788,0.000,-23.438,-23.926,-1000.000,0.000,1731707846.141
789,0.000,-21.484,-19.531,-1000.000,0.000,1731707846.145
790,0.000,-18.066,-17.578,-1000.000,0.000,1731707846.149
791,0.000,-9.766,-18.066,-1000.000,0.000,1731707846.153
792,-1000.000,-12.207,-15.625,-1000.000,0.000,1731707846.156
793,-1000.000,-18.555,-10.742,-1000.000,0.000,1731707846.160
794,-1000.000,-20.996,-11.719,-1000.000,0.000,1731707846.164
795,-1000.000,-19.043,-7.812,-1000.000,0.000,1731707846.167
796,-1000.000,-20.020,-11.719,-1000.000,0.000,1731707846.171
797,-1000.000,-17.578,-17.090,-1000.000,0.000,1731707846.175
798,-1000.000,-6.348,-17.578,-1000.000,0.000,1731707846.179
799,-1000.000,-32.715,-21.973,-1000.000,0.000,1731707846.183
800,-930.664,-42.969,-22.949,-1000.000,0.000,1731707846.186
801,-1000.000,-21.973,-21.973,-1000.000,0.000,1731707846.190
802,-369.629,-22.461,-23.926,-1000.000,0.000,1731707846.194
803,980.469,-18.555,-23.926,-1000.000,0.000,1731707846.198
804,970.215,-14.648,-17.578,-1000.000,0.000,1731707846.203
805,970.215,-12.207,-18.066,-1000.000,0.000,1731707846.207
806,970.215,-13.184,-30.762,-1000.000,0.000,1731707846.210
807,974.121,-16.113,-31.738,-1000.000,0.000,1731707846.214
808,903.809,-17.090,-20.020,-1000.000,0.000,1731707846.218
809,-891.113,-12.207,-15.625,-1000.000,0.000,1731707846.222
810,253.418,-26.855,-25.391,-1000.000,0.000,1731707846.226
811,-1000.000,-45.898,-27.344,-1000.000,0.000,1731707846.230
812,-995.117,-27.344,-24.902,-1000.000,0.000,1731707846.233
813,-967.773,-21.484,-26.855,-1000.000,0.000,1731707846.237
814,-1000.000,-19.531,-29.297,-1000.000,0.000,1731707846.241
815,-1000.000,-19.531,-32.715,-1000.000,0.000,1731707846.245
816,-1000.000,-17.090,-29.785,-1000.000,0.000,1731707846.250
817,-1000.000,-14.160,-22.949,-1000.000,0.000,1731707846.254
818,-1000.000,-17.578,-25.879,-1000.000,0.000,1731707846.257
819,-1000.000,-16.602,-34.180,-1000.000,0.000,1731707846.261
820,-1000.000,-12.695,-29.785,-1000.000,0.000,1731707846.265
821,-1000.000,-4.395,-24.414,-1000.000,0.000,1731707846.269
822,-1000.000,-20.020,-27.344,-1000.000,0.000,1731707846.273
823,-930.664,-35.156,-32.227,-1000.000,0.000,1731707846.276
824,-1000.000,-22.949,-28.809,-1000.000,0.000,1731707846.280
825,-396.973,-10.254,-22.949,-1000.000,0.000,1731707846.284
826,963.867,-0.488,-23.438,-1000.000,0.000,1731707846.288
827,985.840,1.953,-26.367,-1000.000,0.000,1731707846.292
828,928.711,-1.465,-22.461,-1000.000,0.000,1731707846.296
829,981.445,-7.324,-18.555,-1000.000,0.000,1731707846.300
830,970.215,-4.395,-18.555,-1000.000,0.000,1731707846.304
831,970.215,-8.789,-24.414,-1000.000,0.000,1731707846.308
832,970.215,-10.742,-24.414,-1000.000,0.000,1731707846.312
833,970.215,-10.742,-23.438,-1000.000,0.000,1731707846.316
834,970.215,-15.137,-23.926,-1000.000,0.000,1731707846.319
835,970.215,-14.648,-25.879,-1000.000,0.000,1731707846.323
836,970.215,-15.137,-32.227,-1000.000,0.000,1731707846.327
837,970.215,-21.973,-32.227,-1000.000,0.000,1731707846.331
838,970.215,-20.508,-25.391,-1000.000,0.000,1731707846.335
839,970.215,-11.230,-26.367,-1000.000,0.000,1731707846.338
840,970.215,-15.625,-34.180,-1000.000,0.000,1731707846.344
841,970.215,-15.625,-33.691,-1000.000,0.000,1731707846.348
842,970.215,-7.812,-28.809,-1000.000,0.000,1731707846.351
843,970.215,-7.812,-30.762,-1000.000,0.000,1731707846.355
844,970.215,-18.555,-39.551,-1000.000,0.000,1731707846.359
845,970.215,-23.926,-39.062,-1000.000,0.000,1731707846.363
846,970.215,-17.578,-29.297,-1000.000,0.000,1731707846.367
847,970.215,-11.230,-30.273,-1000.000,0.000,1731707846.370
848,970.215,-18.555,-34.668,-1000.000,0.000,1731707846.374
849,982.422,-42.480,-34.180,-1000.000,0.000,1731707846.378
850,917.480,-35.645,-30.273,-1000.000,0.000,1731707846.382
851,-977.051,-15.137,-26.855,-1000.000,0.000,1731707846.386
852,811.523,-17.578,-31.250,-1000.000,0.000,1731707846.391
853,-571.777,-26.367,-31.250,-1000.000,0.000,1731707846.395
854,-1000.000,-22.461,-26.367,-1000.000,0.000,1731707846.399
855,-936.523,-15.137,-25.391,-1000.000,0.000,1731707846.402
856,-1000.000,-25.391,-28.320,-1000.000,0.000,1731707846.406
857,-1000.000,-24.414,-31.250,-1000.000,0.000,1731707846.410
858,-1000.000,-13.672,-30.273,-1000.000,0.000,1731707846.414
859,-1000.000,-11.230,-27.344,-1000.000,0.000,1731707846.418
860,-1000.000,-29.785,-27.832,-1000.000,0.000,1731707846.421
861,-1000.000,-39.551,-33.203,-1000.000,0.000,1731707846.425
862,-1000.000,-22.461,-29.297,-1000.000,0.000,1731707846.429
863,-1000.000,-14.160,-24.902,-1000.000,0.000,1731707846.433
864,-1000.000,-12.207,-25.879,-1000.000,0.000,1731707846.438
865,-1000.000,-14.648,-28.320,-1000.000,0.000,1731707846.442
866,-1000.000,-15.137,-30.762,-1000.000,0.000,1731707846.446
867,-1000.000,-10.742,-29.785,-1000.000,0.000,1731707846.449
868,-1000.000,-7.324,-28.809,-1000.000,0.000,1731707846.453
869,-1000.000,-16.113,-20.020,-1000.000,0.000,1731707846.457
870,-1000.000,-27.832,-16.602,-1000.000,0.000,1731707846.461
871,-1000.000,-24.902,-22.949,-1000.000,0.000,1731707846.465
872,-1000.000,-27.832,-23.926,-1000.000,0.000,1731707846.469
873,-1000.000,-32.227,-23.438,-1000.000,0.000,1731707846.472
874,-1000.000,-28.809,-23.926,-1000.000,0.000,1731707846.476
875,-1000.000,-27.344,-23.438,-1000.000,0.000,1731707846.480
876,-1000.000,-19.531,-18.066,-1000.000,0.000,1731707846.485
877,-1000.000,-20.996,-17.578,-1000.000,0.000,1731707846.489
878,-1000.000,-27.344,-21.973,-1000.000,0.000,1731707846.493
879,-1000.000,-25.879,-21.484,-1000.000,0.000,1731707846.496
880,-1000.000,-20.996,-21.973,-1000.000,0.000,1731707846.500
881,-1000.000,-18.066,-24.414,-1000.000,0.000,1731707846.504
882,-1000.000,-17.578,-28.320,-1000.000,0.000,1731707846.508
883,-1000.000,-22.949,-26.367,-1000.000,0.000,1731707846.512
884,-1000.000,-25.391,-20.508,-1000.000,0.000,1731707846.516
885,-1000.000,-12.695,-20.996,-1000.000,0.000,1731707846.519
886,-1000.000,-12.207,-17.090,-1000.000,0.000,1731707846.523
887,-1000.000,-12.207,-17.578,-1000.000,0.000,1731707846.527
888,-1000.000,-9.766,-16.113,-1000.000,0.000,1731707846.532
889,-1000.000,-14.160,-12.695,-1000.000,0.000,1731707846.536
890,-1000.000,-19.531,-17.090,-1000.000,0.000,1731707846.540
891,-1000.000,-19.043,-24.414,-1000.000,0.000,1731707846.543
892,-1000.000,-20.020,-26.367,-1000.000,0.000,1731707846.547
893,-1000.000,-20.020,-27.344,-1000.000,0.000,1731707846.551
894,-1000.000,-11.719,-27.344,-1000.000,0.000,1731707846.555
895,-934.082,-14.648,-24.902,-1000.000,0.000,1731707846.559
896,-1000.000,-21.973,-24.902,-1000.000,0.000,1731707846.563
897,-641.113,-15.137,-23.926,-1000.000,0.000,1731707846.566
898,774.414,-5.371,-23.438,-1000.000,0.000,1731707846.570
899,-966.309,-8.301,-22.949,-1000.000,0.000,1731707846.574
900,913.086,-18.066,-27.832,-1000.000,0.000,1731707846.579
901,983.887,-13.184,-31.250,-1000.000,0.000,1731707846.583
902,970.215,-8.789,-25.879,-1000.000,0.000,1731707846.587
903,970.215,-14.648,-20.508,-1000.000,0.000,1731707846.590
904,970.215,-19.043,-27.344,-1000.000,0.000,1731707846.594
905,969.727,-16.602,-29.785,-1000.000,0.000,1731707846.598
906,970.215,0.000,-24.902,-1000.000,0.000,1731707846.602
907,970.215,5.859,-22.949,-1000.000,0.000,1731707846.606
908,970.215,-19.043,-23.926,-1000.000,0.000,1731707846.609
909,970.215,-21.484,-22.461,-1000.000,0.000,1731707846.613
910,970.215,-11.719,-18.066,-1000.000,0.000,1731707846.617
911,970.215,-10.742,-17.090,-1000.000,0.000,1731707846.621
912,970.215,-16.113,-22.461,-1000.000,0.000,1731707846.626
913,970.215,-20.996,-30.762,-1000.000,0.000,1731707846.630
914,970.215,-18.066,-27.344,-1000.000,0.000,1731707846.633
915,970.215,-17.090,-25.391,-1000.000,0.000,1731707846.637
916,970.215,-20.996,-27.344,-1000.000,0.000,1731707846.641
917,971.191,-18.066,-25.879,-1000.000,0.000,1731707846.645
918,966.309,-23.438,-26.855,-1000.000,0.000,1731707846.649
919,914.551,-25.879,-26.367,-1000.000,0.000,1731707846.652
920,-899.902,-20.020,-27.344,-1000.000,0.000,1731707846.656
921,116.211,-24.414,-30.762,-1000.000,0.000,1731707846.660
922,-1000.000,-28.320,-28.320,-1000.000,0.000,1731707846.664
923,-974.609,-25.391,-25.879,-1000.000,0.000,1731707846.668
924,-978.516,-23.926,-29.297,-1000.000,0.000,1731707846.672
925,-1000.000,-27.344,-32.227,-1000.000,0.000,1731707846.676
926,-1000.000,-25.879,-27.832,-1000.000,0.000,1731707846.680
927,-1000.000,-26.367,-24.902,-1000.000,0.000,1731707846.684
928,-1000.000,-30.273,-27.832,-1000.000,0.000,1731707846.688
929,-944.824,-34.180,-30.273,-1000.000,0.000,1731707846.692
930,-1000.000,-37.598,-35.156,-1000.000,0.000,1731707846.695
931,-806.641,-29.785,-37.598,-1000.000,0.000,1731707846.699
932,587.402,-19.531,-37.598,-1000.000,0.000,1731707846.703
933,-935.059,-23.926,-36.133,-1000.000,0.000,1731707846.707
934,907.227,-25.391,-34.180,-1000.000,0.000,1731707846.711
935,981.445,-21.973,-30.762,-1000.000,0.000,1731707846.715
936,0.000,-18.066,-26.367,-1000.000,0.000,1731707846.720
937,0.000,-17.090,-24.902,-1000.000,0.000,1731707846.723
938,0.000,-17.578,-24.902,-1000.000,0.000,1731707846.727
939,0.000,-14.648,-26.855,-1000.000,0.000,1731707846.731
940,0.000,-16.113,-26.367,-1000.000,0.000,1731707846.735
941,0.000,-14.160,-22.949,-1000.000,0.000,1731707846.739
942,0.000,-11.719,-21.973,-1000.000,0.000,1731707846.743
943,0.000,-19.531,-25.879,-1000.000,0.000,1731707846.746
944,0.000,-22.461,-22.949,-1000.000,0.000,1731707846.750
945,0.000,-23.438,-17.090,-1000.000,0.000,1731707846.754
946,0.000,-22.949,-21.484,-1000.000,0.000,1731707846.758
947,0.000,-25.879,-25.391,-1000.000,0.000,1731707846.762
948,-1000.000,-28.320,-24.902,-1000.000,0.000,1731707846.767
949,-941.406,-23.438,-20.020,-1000.000,0.000,1731707846.771
950,-1000.000,-21.973,-19.531,-1000.000,0.000,1731707846.774
951,-1000.000,-22.461,-25.879,-1000.000,0.000,1731707846.778
952,-1000.000,-23.926,-25.391,-1000.000,0.000,1731707846.782
953,-1000.000,-20.996,-25.879,-1000.000,0.000,1731707846.786
954,-1000.000,-15.625,-20.996,-1000.000,0.000,1731707846.790
955,-932.129,-22.949,-21.973,-1000.000,0.000,1731707846.794
956,-1000.000,-30.762,-28.320,-1000.000,0.000,1731707846.797
957,-577.637,-31.738,-26.855,-1000.000,0.000,1731707846.801
958,830.078,-21.973,-22.461,-1000.000,0.000,1731707846.805
959,-979.004,-16.602,-23.926,-1000.000,0.000,1731707846.809
960,917.480,-22.461,-28.809,-1000.000,0.000,1731707846.814
961,985.840,-20.996,-27.832,-1000.000,0.000,1731707846.818
962,908.203,-12.695,-24.902,-1000.000,0.000,1731707846.822
963,-903.320,-14.648,-28.809,-1000.000,0.000,1731707846.825
964,254.395,-24.902,-29.297,-1000.000,0.000,1731707846.829
965,-1000.000,-26.367,-28.320,-1000.000,0.000,1731707846.833
966,-999.023,-24.902,-25.879,-1000.000,0.000,1731707846.837
967,-976.074,-24.902,-26.855,-1000.000,0.000,1731707846.841
968,-965.820,-46.875,-31.738,-1000.000,0.000,1731707846.845
969,-1000.000,-46.875,-29.297,-1000.000,0.000,1731707846.848
970,-850.586,-22.461,-23.926,-1000.000,0.000,1731707846.852
971,451.660,-17.090,-27.832,-1000.000,0.000,1731707846.856
972,0.000,-17.578,-35.645,-1000.000,0.000,1731707846.861
973,0.000,-20.996,-37.598,-1000.000,0.000,1731707846.865
974,0.000,-16.602,-37.109,-1000.000,0.000,1731707846.869
975,0.000,-18.066,-38.574,-1000.000,0.000,1731707846.872
976,0.000,-21.484,-34.180,-1000.000,0.000,1731707846.876
977,0.000,-14.648,-29.297,-1000.000,0.000,1731707846.880
978,0.000,-1.953,-23.438,-1000.000,0.000,1731707846.884
979,0.000,-14.648,-25.391,-1000.000,0.000,1731707846.888
980,0.000,-37.109,-32.227,-1000.000,0.000,1731707846.892
981,0.000,-31.738,-33.691,-1000.000,0.000,1731707846.895
982,0.000,-21.973,-32.227,-1000.000,0.000,1731707846.899
983,0.000,-19.043,-25.879,-1000.000,0.000,1731707846.903
984,-996.582,-23.438,-27.832,-1000.000,0.000,1731707846.908
985,-934.082,-26.855,-36.621,-1000.000,0.000,1731707846.912
986,-1000.000,-27.832,-32.227,-932.617,0.000,1731707846.916
987,-339.844,-25.391,-27.344,-1000.000,0.000,1731707846.919
988,993.164,-11.719,-23.926,-390.625,0.000,1731707846.923
989,974.609,5.371,-22.949,956.543,0.000,1731707846.927
990,945.312,9.766,-21.973,999.023,0.000,1731707846.931
991,931.152,-20.020,-17.578,859.375,0.000,1731707846.935
992,-991.699,-29.785,-17.578,-904.785,0.000,1731707846.938
993,875.488,-17.578,-20.996,541.016,0.000,1731707846.942
994,-502.930,-37.109,-24.414,-876.953,0.000,1731707846.946
995,-1000.000,-37.598,-24.414,-1000.000,0.000,1731707846.950
996,-933.594,-22.461,-19.043,-946.777,0.000,1731707846.955
997,-1000.000,-24.414,-19.531,-1000.000,0.000,1731707846.959
998,-1000.000,-28.320,-23.438,-1000.000,0.000,1731707846.962
999,-1000.000,-21.484,-20.996,-1000.000,0.000,1731707846.966
1000,-1000.000,-20.020,-18.555,-1000.000,0.000,1731707846.970
1001,-929.688,-15.625,-20.020,-999.023,0.000,1731707846.974
1002,-1000.000,-27.832,-21.484,-940.918,0.000,1731707846.978
1003,-406.250,-45.410,-23.438,-1000.000,0.000,1731707846.982
1004,961.426,-12.695,-22.949,-185.547,0.000,1731707846.985
1005,986.816,7.324,-20.996,-950.684,0.000,1731707846.989
1006,927.246,-0.488,-17.578,949.707,0.000,1731707846.993
1007,981.934,-2.441,-16.602,949.707,0.000,1731707846.997
1008,970.215,-2.441,-16.113,958.008,0.000,1731707847.002
1009,907.715,-8.301,-19.531,941.895,0.000,1731707847.005
1010,-891.602,-14.160,-23.926,-952.637,0.000,1731707847.009
1011,183.594,-32.227,-24.902,-94.238,0.000,1731707847.013
1012,-1000.000,-41.992,-25.879,-1000.000,0.000,1731707847.017
1013,-983.398,-25.879,-21.484,-955.078,0.000,1731707847.021
1014,-973.633,-30.273,-20.020,-991.211,0.000,1731707847.025
1015,-1000.000,-39.062,-22.461,-1000.000,0.000,1731707847.028
1016,-1000.000,-31.250,-28.320,-1000.000,0.000,1731707847.032
1017,-1000.000,-26.367,-28.809,-1000.000,0.000,1731707847.036
1018,-1000.000,-22.461,-25.391,-1000.000,0.000,1731707847.040
1019,-1000.000,-22.949,-26.855,-1000.000,0.000,1731707847.044
1020,-1000.000,-23.926,-32.715,-1000.000,0.000,1731707847.048
1021,-1000.000,-18.555,-29.297,-1000.000,0.000,1731707847.052
1022,-1000.000,-20.508,-32.715,-1000.000,0.000,1731707847.056
1023,-1000.000,-24.414,-38.574,-1000.000,0.000,1731707847.060
1024,-1000.000,-20.020,-34.668,-1000.000,0.000,1731707847.064
1025,-1000.000,-10.742,-33.691,-1000.000,0.000,1731707847.067
1026,-1000.000,-11.230,-31.250,-1000.000,0.000,1731707847.071
1027,-1000.000,-22.461,-26.855,-1000.000,0.000,1731707847.075
1028,-1000.000,-28.320,-30.273,-1000.000,0.000,1731707847.079
1029,-1000.000,-25.391,-30.273,-1000.000,0.000,1731707847.083
1030,-1000.000,-19.531,-25.391,-1000.000,0.000,1731707847.087
1031,-1000.000,-19.043,-26.367,-1000.000,0.000,1731707847.090
1032,-933.105,-20.020,-30.273,-952.637,0.000,1731707847.095
1033,-1000.000,-24.902,-29.785,-1000.000,0.000,1731707847.099
1034,-313.965,-20.020,-29.785,-888.184,0.000,1731707847.103
1035,-996.094,-1.953,-27.832,471.680,0.000,1731707847.107
1036,969.727,-3.906,-26.367,-920.898,0.000,1731707847.111
1037,942.871,-13.672,-30.762,920.410,0.000,1731707847.115
1038,947.266,-5.859,-27.832,918.457,0.000,1731707847.118
1039,966.309,-8.301,-21.973,-953.125,0.000,1731707847.122
1040,-997.070,-20.020,-23.438,723.145,0.000,1731707847.126
1041,-283.203,-35.645,-29.785,-686.035,0.000,1731707847.130
1042,-1000.000,-41.992,-31.738,-1000.000,0.000,1731707847.134
1043,-937.012,-34.668,-29.785,-938.477,0.000,1731707847.138
1044,0.000,-33.203,-30.273,-1000.000,0.000,1731707847.143
1045,0.000,-35.156,-33.203,-1000.000,0.000,1731707847.146
1046,0.000,-31.250,-30.762,-1000.000,0.000,1731707847.150
1047,0.000,-27.344,-33.691,-1000.000,0.000,1731707847.154
1048,0.000,-27.832,-40.527,-1000.000,0.000,1731707847.158
1049,0.000,-25.879,-39.551,-1000.000,0.000,1731707847.162
1050,0.000,-25.879,-38.086,-951.660,0.000,1731707847.166
1051,0.000,-22.949,-35.645,-1000.000,0.000,1731707847.169
1052,0.000,-33.203,-32.227,-804.688,0.000,1731707847.173
1053,0.000,-35.645,-35.156,536.133,0.000,1731707847.177
1054,0.000,-14.648,-37.598,-937.012,0.000,1731707847.181
1055,0.000,-10.742,-33.203,912.109,0.000,1731707847.185
1056,982.422,-11.230,-28.809,978.516,0.000,1731707847.190
1057,969.727,-21.484,-36.621,970.703,0.000,1731707847.193
1058,969.727,-18.066,-39.062,970.703,0.000,1731707847.197
1059,969.727,-9.766,-35.645,970.215,0.000,1731707847.201
1060,970.215,-15.137,-36.621,970.703,0.000,1731707847.205
1061,970.215,-16.113,-30.762,970.703,0.000,1731707847.209
1062,969.727,-14.160,-28.809,970.703,0.000,1731707847.213
1063,970.215,-14.160,-33.203,970.703,0.000,1731707847.216
1064,969.727,-37.598,-30.762,970.703,0.000,1731707847.220
1065,969.727,-41.504,-34.668,970.215,0.000,1731707847.224
1066,969.727,-19.531,-37.598,970.703,0.000,1731707847.228
1067,970.215,-16.113,-36.133,970.703,0.000,1731707847.232
1068,970.215,-20.020,-36.621,970.703,0.000,1731707847.237
1069,970.215,-25.879,-33.691,970.703,0.000,1731707847.240
1070,969.727,-28.320,-37.109,970.703,0.000,1731707847.244
1071,969.727,-25.879,-34.668,970.703,0.000,1731707847.248
1072,969.727,-22.949,-28.320,970.703,0.000,1731707847.252
1073,969.727,-19.531,-26.367,970.703,0.000,1731707847.256
1074,969.727,-22.461,-29.297,970.703,0.000,1731707847.260
1075,969.727,-29.785,-35.645,970.703,0.000,1731707847.263
1076,969.727,-30.273,-33.691,970.703,0.000,1731707847.267
1077,969.727,-26.855,-28.809,970.215,0.000,1731707847.271
1078,969.727,-24.414,-31.738,970.703,0.000,1731707847.275
1079,969.727,-17.578,-29.297,970.215,0.000,1731707847.279
1080,970.215,-16.602,-23.926,970.703,0.000,1731707847.284
1081,970.215,-20.020,-21.484,970.703,0.000,1731707847.287
1082,970.215,-19.043,-18.066,970.703,0.000,1731707847.291
1083,969.727,-25.391,-21.484,970.215,0.000,1731707847.295
1084,969.727,-29.297,-27.344,970.703,0.000,1731707847.299
1085,969.727,-25.391,-27.344,970.215,0.000,1731707847.303
1086,970.215,-18.555,-26.855,970.703,0.000,1731707847.307
1087,967.773,-32.715,-30.273,970.703,0.000,1731707847.310
1088,975.098,-39.551,-34.180,972.656,0.000,1731707847.314
1089,937.500,-24.902,-25.879,961.914,0.000,1731707847.318
1090,970.703,-22.949,-19.531,922.363,0.000,1731707847.322
1091,979.492,-23.438,-23.438,-908.203,0.000,1731707847.326
1092,-294.434,-37.598,-25.879,40.039,0.000,1731707847.330
1093,-1000.000,-49.805,-24.414,-1000.000,0.000,1731707847.334
1094,-940.430,-41.992,-28.320,-964.844,0.000,1731707847.338
1095,-1000.000,-42.969,-35.645,-990.723,0.000,1731707847.342
1096,-927.734,-42.969,-35.156,-935.547,0.000,1731707847.346
1097,-1000.000,-30.762,-33.691,-1000.000,0.000,1731707847.350
1098,-582.031,-27.344,-32.227,-342.773,0.000,1731707847.353
1099,860.840,-25.391,-31.738,992.188,0.000,1731707847.357
1100,-979.004,-17.578,-29.785,975.586,0.000,1731707847.361
1101,914.062,-15.137,-28.320,933.105,0.000,1731707847.365
1102,985.352,-12.207,-25.879,980.469,0.000,1731707847.369
1103,969.727,-15.625,-26.855,970.703,0.000,1731707847.373
1104,969.727,-18.066,-29.297,970.703,0.000,1731707847.377
1105,969.727,-21.484,-27.344,970.703,0.000,1731707847.381
1106,970.215,-26.367,-25.879,970.703,0.000,1731707847.385
1107,969.727,-25.391,-32.227,970.703,0.000,1731707847.389
1108,969.727,-23.438,-31.738,970.703,0.000,1731707847.393
1109,970.703,-17.578,-29.785,970.703,0.000,1731707847.396
1110,968.262,-22.461,-26.855,972.168,0.000,1731707847.400
1111,910.645,-27.344,-25.391,906.738,0.000,1731707847.404
1112,-895.508,-22.461,-26.367,-890.625,0.000,1731707847.408
1113,141.113,-37.598,-30.273,198.242,0.000,1731707847.412
1114,-1000.000,-53.711,-31.250,-996.582,0.000,1731707847.416
1115,-993.164,-38.086,-19.043,-1000.000,0.000,1731707847.419
1116,-953.613,-22.461,-14.160,-410.645,0.000,1731707847.424
1117,336.426,-12.207,-21.484,922.852,0.000,1731707847.428
1118,-906.250,-1.953,-24.414,994.629,0.000,1731707847.432
1119,905.762,-7.812,-20.020,926.270,0.000,1731707847.435
1120,975.098,-12.207,-18.555,982.422,0.000,1731707847.439
1121,970.215,-17.090,-21.484,970.215,0.000,1731707847.443
1122,970.215,-24.902,-26.367,970.703,0.000,1731707847.447
1123,969.727,-21.484,-25.879,970.215,0.000,1731707847.451
1124,969.727,-21.973,-23.926,970.215,0.000,1731707847.455
1125,970.215,-23.438,-22.949,970.703,0.000,1731707847.459
1126,969.727,-21.973,-26.367,970.703,0.000,1731707847.462
1127,969.727,-18.555,-22.461,970.703,0.000,1731707847.466
1128,970.215,-12.695,-16.113,970.703,0.000,1731707847.471
1129,969.727,-16.113,-19.531,970.703,0.000,1731707847.475
1130,969.727,-20.020,-20.996,970.703,0.000,1731707847.479
1131,970.215,-18.066,-23.438,970.703,0.000,1731707847.483
1132,969.727,-20.996,-20.020,970.703,0.000,1731707847.486
1133,969.727,-20.020,-17.090,970.703,0.000,1731707847.490
1134,969.727,-19.531,-24.902,970.703,0.000,1731707847.494
1135,973.145,-18.066,-27.344,970.703,0.000,1731707847.498
1136,958.008,-17.578,-24.902,971.191,0.000,1731707847.502
1137,929.688,-19.531,-22.461,908.203,0.000,1731707847.506
1138,-933.594,-15.625,-23.926,-891.113,0.000,1731707847.509
1139,3.418,-30.762,-26.367,183.594,0.000,1731707847.513
1140,-1000.000,-49.316,-27.832,-1000.000,0.000,1731707847.518
1141,-965.820,-41.016,-24.902,-984.375,0.000,1731707847.522
1142,-985.840,-34.180,-25.391,-970.215,0.000,1731707847.526
1143,-941.406,-32.227,-30.762,-950.195,0.000,1731707847.530
1144,-1000.000,-31.738,-29.297,-1000.000,0.000,1731707847.534
1145,-219.727,-11.230,-21.973,-157.715,0.000,1731707847.537
1146,-958.984,0.977,-22.949,-944.336,0.000,1731707847.541
1147,953.613,-12.695,-26.367,946.289,0.000,1731707847.545
1148,942.871,-22.461,-28.320,947.754,0.000,1731707847.549
1149,976.562,-30.273,-25.391,976.074,0.000,1731707847.553
1150,969.727,-19.043,-15.137,970.703,0.000,1731707847.557
1151,970.215,-16.602,-12.695,970.215,0.000,1731707847.560
1152,969.727,-19.531,-15.137,970.703,0.000,1731707847.565
1153,969.727,-13.672,-19.043,970.703,0.000,1731707847.569
1154,969.727,-12.695,-22.461,970.703,0.000,1731707847.573
1155,969.727,-19.043,-27.832,970.215,0.000,1731707847.577
1156,969.727,-20.020,-31.738,970.215,0.000,1731707847.581
1157,969.727,-17.578,-30.762,970.703,0.000,1731707847.584
1158,969.727,-21.973,-29.785,970.703,0.000,1731707847.588
1159,970.215,-21.484,-31.738,970.703,0.000,1731707847.592
1160,969.727,-42.480,-31.250,970.215,0.000,1731707847.596
1161,979.980,-44.922,-30.762,984.375,0.000,1731707847.600
1162,898.438,-21.484,-25.879,906.250,0.000,1731707847.604
1163,-897.949,-20.996,-22.949,-942.383,0.000,1731707847.607
1164,0.000,-26.855,-29.785,683.594,0.000,1731707847.612
1165,0.000,-41.504,-34.180,-739.258,0.000,1731707847.616
1166,0.000,-39.062,-31.738,-1000.000,0.000,1731707847.620
1167,0.000,-34.668,-29.297,-945.801,0.000,1731707847.624
1168,0.000,-37.598,-30.762,-985.840,0.000,1731707847.628
1169,0.000,-34.180,-30.762,-991.699,0.000,1731707847.631
1170,0.000,-22.461,-31.250,-1000.000,0.000,1731707847.635
1171,0.000,-33.691,-30.273,200.684,0.000,1731707847.639
1172,0.000,-55.664,-30.762,-908.691,0.000,1731707847.643
1173,0.000,-24.902,-29.297,915.039,0.000,1731707847.647
1174,0.000,-10.254,-26.367,968.750,0.000,1731707847.651
1175,0.000,-17.090,-22.461,971.680,0.000,1731707847.654
1176,398.438,-17.090,-20.020,970.703,0.000,1731707847.658
1177,-980.957,-16.113,-26.367,970.703,0.000,1731707847.662
1178,-1000.000,-11.719,-22.461,970.703,0.000,1731707847.666
1179,-957.520,-12.695,-19.043,970.703,0.000,1731707847.669
1180,-1000.000,-18.066,-23.438,970.703,0.000,1731707847.673
1181,-947.754,-20.508,-24.902,970.215,0.000,1731707847.677
1182,-1000.000,-14.160,-23.438,971.191,0.000,1731707847.681
1183,-105.957,-25.879,-22.461,967.773,0.000,1731707847.685
1184,-931.152,-34.180,-20.996,913.086,0.000,1731707847.689
1185,937.500,-14.160,-20.996,-897.461,0.000,1731707847.693
1186,951.172,-21.973,-29.785,136.719,0.000,1731707847.696
1187,974.121,-39.551,-29.785,-1000.000,0.000,1731707847.700
1188,-974.121,-34.180,-24.414,-977.539,0.000,1731707847.705
1189,-994.141,-31.250,-25.879,-983.398,0.000,1731707847.709
1190,-931.641,-32.227,-28.809,-937.012,0.000,1731707847.713
1191,-1000.000,-30.273,-25.879,-1000.000,0.000,1731707847.716
1192,-561.523,-24.414,-23.438,-344.727,0.000,1731707847.720
1193,879.395,0.000,-20.020,991.699,0.000,1731707847.724
1194,-983.398,-6.836,-17.090,976.074,0.000,1731707847.728
1195,915.039,-32.715,-17.090,933.105,0.000,1731707847.732
1196,985.352,-23.926,-13.184,980.469,0.000,1731707847.736
1197,970.215,-22.461,-16.113,970.703,0.000,1731707847.739
1198,970.215,-28.320,-20.508,970.703,0.000,1731707847.743
1199,969.727,-27.832,-20.508,970.215,0.000,1731707847.747
1200,969.727,-26.367,-19.043,970.703,0.000,1731707847.752
1201,970.215,-23.438,-16.602,970.703,0.000,1731707847.756
1202,970.215,-21.484,-20.020,970.703,0.000,1731707847.759
1203,969.727,-29.297,-22.949,970.703,0.000,1731707847.763
1204,969.727,-34.668,-25.391,970.215,0.000,1731707847.767
1205,969.727,-25.879,-18.066,970.215,0.000,1731707847.771
1206,969.727,-18.555,-12.695,970.215,0.000,1731707847.775
1207,970.215,-20.020,-24.414,970.703,0.000,1731707847.779
1208,969.727,-20.020,-25.879,970.703,0.000,1731707847.782
1209,970.215,-22.949,-20.508,970.703,0.000,1731707847.786
1210,969.727,-28.809,-18.066,970.703,0.000,1731707847.790
1211,969.727,-25.879,-20.020,970.703,0.000,1731707847.794
1212,969.727,-20.996,-21.484,970.215,0.000,1731707847.799
1213,970.215,-21.973,-21.973,970.703,0.000,1731707847.803
1214,969.727,-19.531,-23.438,970.703,0.000,1731707847.807
1215,969.727,-16.602,-24.414,970.703,0.000,1731707847.810
1216,970.215,-16.113,-24.902,970.703,0.000,1731707847.814
1217,969.727,-16.602,-23.926,970.703,0.000,1731707847.818
1218,969.727,-22.461,-20.996,970.703,0.000,1731707847.822
1219,969.727,-23.438,-23.438,970.703,0.000,1731707847.826
1220,969.727,-19.043,-24.414,970.703,0.000,1731707847.830
1221,969.727,-15.137,-20.020,970.703,0.000,1731707847.833
1222,970.215,-15.625,-23.438,970.703,0.000,1731707847.837
1223,969.727,-14.648,-21.484,970.215,0.000,1731707847.841
1224,969.727,-14.160,-21.973,970.215,0.000,1731707847.846
1225,969.727,-19.043,-27.344,970.703,0.000,1731707847.850
1226,970.215,-14.648,-21.484,970.703,0.000,1731707847.854
1227,970.215,-14.160,-21.484,970.703,0.000,1731707847.858
1228,970.215,-25.879,-32.715,970.703,0.000,1731707847.861
1229,969.727,-19.043,-32.227,970.703,0.000,1731707847.865
1230,969.727,-11.719,-26.855,970.703,0.000,1731707847.869
1231,969.727,-16.602,-28.320,970.703,0.000,1731707847.873
1232,969.727,-22.461,-32.715,970.215,0.000,1731707847.877
1233,970.215,-40.039,-36.621,970.215,0.000,1731707847.881
1234,969.727,-36.621,-33.203,970.215,0.000,1731707847.884
1235,969.727,-26.855,-27.832,970.703,0.000,1731707847.888
1236,969.727,-29.297,-27.344,970.703,0.000,1731707847.893
1237,969.727,-23.926,-29.785,970.703,0.000,1731707847.897
1238,970.215,-18.555,-24.902,970.703,0.000,1731707847.901
1239,970.215,-20.996,-26.855,970.703,0.000,1731707847.905
1240,969.727,-21.484,-32.715,970.215,0.000,1731707847.908
1241,970.703,-19.043,-31.738,970.215,0.000,1731707847.912
1242,966.797,-19.043,-30.273,970.703,0.000,1731707847.916
1243,912.598,-17.090,-32.227,970.703,0.000,1731707847.920
1244,-897.461,-25.879,-33.691,970.215,0.000,1731707847.924
1245,132.324,-41.504,-40.039,970.703,0.000,1731707847.928
1246,-1000.000,-35.156,-42.480,970.703,0.000,1731707847.932
1247,-976.562,-26.855,-37.598,970.703,0.000,1731707847.935
1248,-977.539,-24.414,-32.715,970.703,0.000,1731707847.940
1249,-1000.000,-20.996,-32.227,970.703,0.000,1731707847.944
1250,-1000.000,-20.508,-33.203,970.703,0.000,1731707847.948
1251,-1000.000,-20.508,-33.203,970.703,0.000,1731707847.952
1252,-1000.000,-19.531,-35.156,970.703,0.000,1731707847.955
1253,-1000.000,-20.020,-34.668,970.703,0.000,1731707847.959
1254,-1000.000,-18.066,-36.621,970.703,0.000,1731707847.963
1255,-1000.000,-12.695,-30.762,975.586,0.000,1731707847.967
1256,-1000.000,-34.668,-25.879,946.777,0.000,1731707847.971
1257,-1000.000,-35.645,-27.344,959.473,0.000,1731707847.975
1258,-1000.000,-12.695,-29.785,971.191,0.000,1731707847.979
1259,-950.684,-24.414,-27.832,-115.234,0.000,1731707847.982
1260,0.000,-41.992,-25.391,-1000.000,0.000,1731707847.987
1261,0.000,-27.344,-23.926,-175.293,0.000,1731707847.991
1262,0.000,-1.953,-24.902,-951.172,0.000,1731707847.995
1263,0.000,0.000,-23.438,951.660,0.000,1731707847.999
1264,0.000,-7.812,-21.973,943.359,0.000,1731707848.002
1265,0.000,-10.254,-22.949,977.051,0.000,1731707848.006
1266,0.000,-6.836,-22.949,970.703,0.000,1731707848.010
1267,0.000,-17.090,-25.879,971.191,0.000,1731707848.014
1268,0.000,-27.344,-25.879,966.309,0.000,1731707848.018
1269,0.000,-21.484,-27.832,914.551,0.000,1731707848.022
1270,0.000,-17.578,-33.691,-898.438,0.000,1731707848.026
1271,0.000,-28.320,-31.738,113.770,0.000,1731707848.029
1272,-1000.000,-38.086,-25.879,-1000.000,0.000,1731707848.034
1273,-941.895,-31.250,-21.973,-974.121,0.000,1731707848.038
1274,-1000.000,-26.855,-19.043,-982.910,0.000,1731707848.042
1275,-1000.000,-25.879,-26.855,-987.305,0.000,1731707848.046
1276,-937.500,-22.461,-28.809,-972.168,0.000,1731707848.049
1277,-1000.000,-20.020,-21.484,-1000.000,0.000,1731707848.053
1278,-219.727,3.906,-20.020,59.082,0.000,1731707848.057
1279,-958.984,-4.883,-26.367,-921.875,0.000,1731707848.061
1280,953.613,-23.926,-27.344,926.758,0.000,1731707848.065
1281,942.871,0.000,-21.484,960.449,0.000,1731707848.069
1282,976.562,-3.418,-20.508,973.145,0.000,1731707848.072
1283,969.727,-16.602,-26.367,970.703,0.000,1731707848.076
1284,969.727,-21.973,-34.668,970.703,0.000,1731707848.081
1285,970.215,-18.066,-36.133,970.703,0.000,1731707848.085
1286,970.215,-8.789,-28.809,970.215,0.000,1731707848.089
1287,969.727,-12.695,-27.344,970.703,0.000,1731707848.092
1288,969.727,-17.578,-29.297,970.703,0.000,1731707848.096
1289,969.727,-6.348,-21.973,970.703,0.000,1731707848.100
1290,969.727,-7.812,-21.973,970.703,0.000,1731707848.104
1291,969.727,-20.996,-28.809,970.703,0.000,1731707848.108
1292,969.727,-16.113,-29.297,970.703,0.000,1731707848.112
1293,979.492,-19.043,-25.879,973.145,0.000,1731707848.116
1294,929.688,-20.508,-20.508,959.961,0.000,1731707848.119
1295,991.211,-17.090,-19.043,926.270,0.000,1731707848.123
1296,0.000,-20.020,-22.461,-916.504,0.000,1731707848.128
1297,0.000,-38.574,-25.879,15.625,0.000,1731707848.132
1298,0.000,-49.805,-26.855,-1000.000,0.000,1731707848.135
1299,0.000,-37.109,-20.508,-972.656,0.000,1731707848.139
1300,0.000,-29.297,-15.625,-945.801,0.000,1731707848.143
1301,0.000,-20.020,-15.137,-1000.000,0.000,1731707848.147
1302,0.000,-24.414,-18.555,-954.102,0.000,1731707848.151
1303,0.000,-18.555,-18.555,359.375,0.000,1731707848.155
1304,0.000,-7.812,-20.996,-912.109,0.000,1731707848.159
1305,0.000,-19.043,-30.273,909.180,0.000,1731707848.162
1306,0.000,-15.137,-27.344,975.098,0.000,1731707848.166
1307,0.000,-17.578,-26.367,970.703,0.000,1731707848.170
1308,970.215,-23.926,-22.949,970.703,0.000,1731707848.174
1309,969.727,-25.391,-22.461,970.703,0.000,1731707848.178
1310,970.215,-24.902,-29.297,970.703,0.000,1731707848.182
1311,969.727,-27.344,-28.809,970.703,0.000,1731707848.186
1312,969.727,-26.367,-21.973,970.215,0.000,1731707848.190
1313,969.727,-21.484,-24.902,970.703,0.000,1731707848.194
1314,969.727,-27.832,-31.250,970.703,0.000,1731707848.198
1315,969.727,-33.691,-32.227,970.703,0.000,1731707848.201
1316,970.215,-33.203,-32.715,970.703,0.000,1731707848.205
1317,969.727,-35.645,-31.738,970.215,0.000,1731707848.209
1318,969.727,-36.621,-38.086,970.215,0.000,1731707848.213
1319,969.727,-29.785,-37.598,970.703,0.000,1731707848.217
1320,969.727,-21.484,-31.738,970.703,0.000,1731707848.222
1321,969.727,-24.902,-31.250,970.703,0.000,1731707848.225
1322,969.727,-25.391,-30.762,970.215,0.000,1731707848.229
1323,970.215,-19.531,-29.785,970.703,0.000,1731707848.233
1324,969.727,-17.578,-25.879,970.703,0.000,1731707848.237
1325,969.727,-19.531,-23.926,970.703,0.000,1731707848.241
1326,969.727,-20.996,-26.367,970.703,0.000,1731707848.245
1327,969.727,-20.996,-29.297,970.703,0.000,1731707848.249
1328,969.727,-18.066,-24.902,970.703,0.000,1731707848.252
1329,969.727,-22.949,-24.414,970.703,0.000,1731707848.256
1330,969.727,-27.832,-30.762,970.703,0.000,1731707848.260
1331,969.727,-27.832,-33.203,970.215,0.000,1731707848.264
1332,0.000,-29.785,-27.832,970.703,0.000,1731707848.269
1333,0.000,-29.785,-24.902,970.703,0.000,1731707848.272
1334,0.000,-26.367,-20.508,970.703,0.000,1731707848.276
1335,0.000,-27.344,-22.949,970.703,0.000,1731707848.280
1336,0.000,-29.785,-26.367,970.703,0.000,1731707848.284
1337,0.000,-29.785,-20.020,970.703,0.000,1731707848.288
1338,0.000,-25.391,-21.484,970.703,0.000,1731707848.292
1339,0.000,-22.461,-23.438,970.703,0.000,1731707848.296
1340,0.000,-27.344,-19.043,970.703,0.000,1731707848.299
1341,0.000,-30.273,-17.090,970.703,0.000,1731707848.303
1342,0.000,-25.391,-18.066,970.215,0.000,1731707848.307
1343,0.000,-27.832,-22.949,970.703,0.000,1731707848.311
1344,969.727,-27.832,-20.508,970.703,0.000,1731707848.316
1345,969.727,-18.555,-11.719,970.703,0.000,1731707848.320
1346,969.727,-18.066,-16.602,970.215,0.000,1731707848.323
1347,970.215,-28.320,-21.973,970.703,0.000,1731707848.327
1348,970.215,-24.414,-19.531,970.703,0.000,1731707848.331
1349,970.215,-11.719,-18.066,970.703,0.000,1731707848.335
1350,970.215,-9.277,-18.066,970.703,0.000,1731707848.339
1351,969.727,-14.160,-21.973,970.703,0.000,1731707848.343
1352,969.727,-25.391,-28.320,970.703,0.000,1731707848.346
1353,969.727,-27.344,-26.367,970.703,0.000,1731707848.350
1354,969.727,-21.973,-27.344,970.215,0.000,1731707848.354
1355,969.727,-23.926,-27.344,970.215,0.000,1731707848.358
1356,969.727,-23.438,-23.926,970.703,0.000,1731707848.363
1357,970.215,-20.996,-25.879,970.703,0.000,1731707848.366
1358,969.727,-23.438,-25.879,970.215,0.000,1731707848.370
1359,969.727,-19.043,-22.461,970.215,0.000,1731707848.374
1360,970.215,-13.672,-19.043,970.703,0.000,1731707848.378
1361,970.215,-6.836,-15.137,970.703,0.000,1731707848.382
1362,969.727,-1.465,-14.160,970.703,0.000,1731707848.386
1363,970.215,-2.930,-12.695,970.703,0.000,1731707848.390
1364,970.215,-4.883,-10.742,970.703,0.000,1731707848.393
1365,969.727,-13.184,-15.625,970.703,0.000,1731707848.397
1366,969.727,-9.766,-19.043,970.703,0.000,1731707848.401
1367,969.727,-1.465,-13.184,970.215,0.000,1731707848.405
1368,969.727,-7.812,-11.719,970.703,0.000,1731707848.410
1369,969.727,-10.254,-16.113,970.703,0.000,1731707848.413
1370,969.727,-5.859,-17.090,970.215,0.000,1731707848.417
1371,969.727,-8.301,-13.184,970.215,0.000,1731707848.421
1372,969.727,-5.371,-11.230,970.703,0.000,1731707848.425
1373,969.727,-4.395,-12.695,970.703,0.000,1731707848.429
1374,969.727,-0.977,-12.695,970.703,0.000,1731707848.433
1375,969.727,-18.555,-13.184,970.703,0.000,1731707848.437
1376,969.727,-29.297,-13.184,970.703,0.000,1731707848.440
1377,969.727,-12.695,-13.184,970.703,0.000,1731707848.444
1378,969.727,-15.625,-20.020,970.703,0.000,1731707848.448
1379,969.727,-16.602,-19.531,970.703,0.000,1731707848.452
1380,0.000,-13.184,-16.113,970.703,0.000,1731707848.456
1381,0.000,-17.090,-23.438,970.703,0.000,1731707848.460
1382,0.000,-23.438,-28.320,970.215,0.000,1731707848.464
1383,0.000,-26.367,-28.809,970.703,0.000,1731707848.468
1384,0.000,-33.203,-28.320,970.703,0.000,1731707848.472
1385,0.000,-26.855,-25.879,970.215,0.000,1731707848.476
1386,0.000,-24.902,-30.762,970.215,0.000,1731707848.480
1387,0.000,-35.156,-36.621,970.703,0.000,1731707848.483
1388,0.000,-27.344,-34.180,970.703,0.000,1731707848.487
1389,0.000,-28.320,-30.273,970.703,0.000,1731707848.491
1390,0.000,-29.297,-31.738,970.703,0.000,1731707848.495
1391,0.000,-27.344,-33.691,970.703,0.000,1731707848.499
1392,969.727,-25.879,-35.156,970.215,0.000,1731707848.503
1393,969.727,-25.391,-33.203,970.703,0.000,1731707848.507
1394,970.215,-26.367,-33.691,970.703,0.000,1731707848.511
1395,969.727,-30.762,-34.668,970.215,0.000,1731707848.515
1396,970.215,-25.879,-26.367,970.215,0.000,1731707848.519
1397,970.215,-16.113,-20.996,970.215,0.000,1731707848.523
1398,969.727,-18.555,-27.344,970.703,0.000,1731707848.526
1399,969.727,-28.320,-36.133,970.703,0.000,1731707848.530
1400,969.727,-28.320,-34.668,970.215,0.000,1731707848.534
1401,970.215,-26.855,-29.297,970.215,0.000,1731707848.538
1402,970.215,-27.832,-32.715,970.703,0.000,1731707848.542
1403,969.727,-31.738,-34.180,970.215,0.000,1731707848.546
1404,969.727,-31.250,-34.668,970.703,0.000,1731707848.550
1405,969.727,-30.273,-37.109,970.703,0.000,1731707848.554
1406,969.727,-35.156,-38.574,970.703,0.000,1731707848.558
1407,969.727,-36.133,-41.016,970.703,0.000,1731707848.562
1408,969.727,-34.180,-40.039,970.703,0.000,1731707848.565
1409,969.727,-27.344,-36.621,970.703,0.000,1731707848.569
1410,970.215,-24.414,-39.062,970.703,0.000,1731707848.573
1411,982.910,-32.715,-40.527,970.703,0.000,1731707848.577
1412,915.527,-34.668,-40.527,970.703,0.000,1731707848.581
1413,-973.145,-33.691,-42.969,970.703,0.000,1731707848.585
1414,800.293,-29.785,-40.527,970.703,0.000,1731707848.589
1415,-592.285,-36.133,-42.480,970.703,0.000,1731707848.592
1416,0.000,-43.457,0.000,970.703,0.000,1731707848.597
1417,0.000,-42.969,0.000,970.215,0.000,1731707848.601
1418,0.000,-43.457,0.000,970.703,0.000,1731707848.605
1419,0.000,-39.062,0.000,970.703,0.000,1731707848.609
1420,0.000,-35.645,0.000,970.703,0.000,1731707848.613
1421,0.000,-33.691,0.000,970.703,0.000,1731707848.616
1422,0.000,-27.832,0.000,970.703,0.000,1731707848.620
1423,0.000,-26.855,0.000,970.703,0.000,1731707848.624
1424,0.000,-34.668,0.000,970.703,0.000,1731707848.628
1425,0.000,-34.668,0.000,970.703,0.000,1731707848.632
1426,0.000,-29.785,0.000,970.703,0.000,1731707848.636
1427,0.000,-29.785,0.000,970.703,0.000,1731707848.639
1428,-1000.000,-33.203,-30.273,970.703,0.000,1731707848.643
1429,-936.523,-35.645,-30.762,970.703,0.000,1731707848.647
1430,-1000.000,-34.668,-26.367,970.703,0.000,1731707848.651
1431,-1000.000,-26.855,-24.414,970.703,0.000,1731707848.655
1432,-1000.000,-29.785,-27.832,970.703,0.000,1731707848.659
1433,-1000.000,-34.180,-31.738,971.191,0.000,1731707848.662
1434,-1000.000,-25.391,-28.809,907.715,0.000,1731707848.666
1435,-1000.000,-20.996,-29.297,-890.625,0.000,1731707848.670
1436,-1000.000,-39.551,-26.855,190.430,0.000,1731707848.674
1437,-1000.000,-63.477,-28.320,-1000.000,0.000,1731707848.678
1438,-1000.000,-48.340,-25.391,-984.375,0.000,1731707848.682
1439,-1000.000,-37.109,-21.973,-973.145,0.000,1731707848.686
1440,-1000.000,-35.156,-26.367,-1000.000,0.000,1731707848.690
1441,-1000.000,-37.598,-30.273,-1000.000,0.000,1731707848.694
1442,-1000.000,-43.945,-32.715,-1000.000,0.000,1731707848.698
1443,-1000.000,-35.156,-32.227,-1000.000,0.000,1731707848.702
1444,-1000.000,-30.273,-26.855,-1000.000,0.000,1731707848.706
1445,-1000.000,-34.668,-24.414,-1000.000,0.000,1731707848.709
1446,-1000.000,-31.738,-31.250,-1000.000,0.000,1731707848.713
1447,-1000.000,-30.273,-34.668,-1000.000,0.000,1731707848.717
1448,-1000.000,-35.645,-34.668,-1000.000,0.000,1731707848.721
1449,-1000.000,-38.574,-36.133,-1000.000,0.000,1731707848.725
1450,-1000.000,-39.551,-41.504,-1000.000,0.000,1731707848.729
1451,-1000.000,-34.180,-38.574,-1000.000,0.000,1731707848.733
1452,-1000.000,-24.902,-35.156,-1000.000,0.000,1731707848.737
1453,-1000.000,-33.691,-37.598,-1000.000,0.000,1731707848.741
1454,-1000.000,-42.969,-38.574,-1000.000,0.000,1731707848.745
1455,-1000.000,-38.574,-38.086,-1000.000,0.000,1731707848.749
1456,-1000.000,-34.668,-32.715,-1000.000,0.000,1731707848.753
1457,-1000.000,-34.668,-27.832,-1000.000,0.000,1731707848.756
1458,-1000.000,-29.785,-31.250,-1000.000,0.000,1731707848.760
1459,-1000.000,-36.621,-38.574,-1000.000,0.000,1731707848.764
1460,-1000.000,-44.922,-37.109,-1000.000,0.000,1731707848.768
1461,-1000.000,-35.645,-32.715,-1000.000,0.000,1731707848.772
1462,-1000.000,-22.461,-30.273,-1000.000,0.000,1731707848.776
1463,-1000.000,-20.020,-26.855,-1000.000,0.000,1731707848.780
1464,-1000.000,-23.438,-21.484,-1000.000,0.000,1731707848.784
1465,-1000.000,-14.160,-22.949,-1000.000,0.000,1731707848.788
1466,-1000.000,-2.441,-22.461,-1000.000,0.000,1731707848.792
1467,-1000.000,-4.395,-14.160,-1000.000,0.000,1731707848.796
1468,-1000.000,-8.301,-3.906,-1000.000,0.000,1731707848.800
1469,-1000.000,-4.883,-5.371,-1000.000,0.000,1731707848.803
1470,-1000.000,3.906,-15.137,-1000.000,0.000,1731707848.807
1471,-1000.000,-18.555,-27.832,-1000.000,0.000,1731707848.811
1472,-1000.000,-30.762,-30.273,-1000.000,0.000,1731707848.815
1473,-1000.000,-11.230,-22.949,-1000.000,0.000,1731707848.819
1474,-1000.000,-2.441,-24.902,-1000.000,0.000,1731707848.823
1475,-1000.000,-4.883,-24.902,-1000.000,0.000,1731707848.827
1476,-1000.000,-6.836,-19.531,-1000.000,0.000,1731707848.831
1477,-1000.000,-3.906,-11.230,-1000.000,0.000,1731707848.835
1478,-1000.000,3.906,-14.160,-1000.000,0.000,1731707848.839
1479,-1000.000,0.977,-23.926,-1000.000,0.000,1731707848.843
1480,-1000.000,-11.719,-27.832,-1000.000,0.000,1731707848.846
1481,-1000.000,-2.930,-23.438,-1000.000,0.000,1731707848.850
1482,-1000.000,0.977,-18.066,-1000.000,0.000,1731707848.854
1483,-1000.000,-3.906,-23.926,-1000.000,0.000,1731707848.858
1484,-1000.000,-4.883,-29.785,-1000.000,0.000,1731707848.862
1485,-1000.000,-7.812,-26.855,-1000.000,0.000,1731707848.866
1486,-1000.000,-9.766,-22.949,-1000.000,0.000,1731707848.870
1487,-1000.000,-9.277,-28.809,-1000.000,0.000,1731707848.873
1488,-1000.000,-5.859,-35.645,-1000.000,0.000,1731707848.878
1489,-1000.000,-11.719,-43.457,-1000.000,0.000,1731707848.882
1490,-1000.000,-14.648,-41.992,-1000.000,0.000,1731707848.886
1491,-930.176,-14.160,-29.785,-1000.000,0.000,1731707848.889
1492,-1000.000,-21.973,-31.250,-1000.000,0.000,1731707848.893
1493,-365.723,-15.625,-40.527,-1000.000,0.000,1731707848.897
1494,983.398,-17.578,-34.668,-1000.000,0.000,1731707848.901
1495,979.492,-24.902,-28.320,-1000.000,0.000,1731707848.905
1496,931.152,-12.207,-29.297,-1000.000,0.000,1731707848.909
1497,980.957,-16.113,-30.273,-996.094,0.000,1731707848.912
1498,970.215,-14.160,-31.250,-945.801,0.000,1731707848.916
1499,970.215,-11.719,-27.344,-1000.000,0.000,1731707848.920
1500,970.215,-8.789,-25.879,-137.207,0.000,1731707848.925
1501,970.215,-6.348,-25.879,-940.430,0.000,1731707848.928
1502,969.727,-10.254,-23.438,943.848,0.000,1731707848.932
1503,969.727,-13.184,-25.391,949.219,0.000,1731707848.936
1504,969.727,-16.113,-23.438,975.586,0.000,1731707848.940
1505,969.727,-23.438,-19.531,970.703,0.000,1731707848.944
1506,969.727,-39.062,-19.531,970.215,0.000,1731707848.948
1507,969.727,-30.273,-18.555,970.215,0.000,1731707848.952
1508,969.727,-27.832,-18.555,970.703,0.000,1731707848.955
1509,969.727,-33.691,-23.438,970.703,0.000,1731707848.959
1510,969.727,-27.832,-25.879,970.215,0.000,1731707848.963
1511,969.727,-21.973,-23.438,970.703,0.000,1731707848.967
1512,970.215,-23.926,-23.438,970.703,0.000,1731707848.972
1513,969.727,-29.297,-27.832,970.215,0.000,1731707848.976
1514,969.727,-25.879,-31.738,970.215,0.000,1731707848.979
1515,969.727,-20.996,-32.227,970.703,0.000,1731707848.983
1516,969.727,-26.367,-28.809,970.215,0.000,1731707848.987
1517,970.215,-27.832,-23.438,970.703,0.000,1731707848.991
1518,970.703,-28.320,-23.438,975.586,0.000,1731707848.995
1519,907.227,-38.574,-29.785,903.320,0.000,1731707848.999
1520,-891.113,-37.109,-28.809,-890.625,0.000,1731707849.003
1521,188.965,-45.898,-33.691,270.020,0.000,1731707849.006
1522,-1000.000,-60.547,-35.645,-1000.000,0.000,1731707849.010
1523,-984.375,-51.270,-34.668,-997.559,0.000,1731707849.014
1524,-973.145,-49.316,-33.203,-966.797,0.000,1731707849.019
1525,-1000.000,-52.246,-26.855,-1000.000,0.000,1731707849.023
1526,-1000.000,-43.945,-26.855,-1000.000,0.000,1731707849.026
1527,-1000.000,-42.969,-32.227,-1000.000,0.000,1731707849.030
1528,-1000.000,-38.086,-27.344,-1000.000,0.000,1731707849.034
1529,-1000.000,-30.762,-24.902,-1000.000,0.000,1731707849.038
1530,-1000.000,-25.879,-23.926,-1000.000,0.000,1731707849.042
1531,-1000.000,-26.367,-25.879,-1000.000,0.000,1731707849.046
1532,-1000.000,-30.273,-27.832,-1000.000,0.000,1731707849.050
1533,-1000.000,-30.762,-25.879,-1000.000,0.000,1731707849.053
1534,-1000.000,-32.715,-28.320,-1000.000,0.000,1731707849.057
1535,-1000.000,-33.691,-32.715,-1000.000,0.000,1731707849.061
1536,-1000.000,-29.785,-35.645,-1000.000,0.000,1731707849.066
1537,-1000.000,-25.391,-33.691,-1000.000,0.000,1731707849.070
1538,-1000.000,-26.367,-34.668,-1000.000,0.000,1731707849.073
1539,-1000.000,-29.785,-37.109,-1000.000,0.000,1731707849.077
1540,-1000.000,-29.297,-35.645,-1000.000,0.000,1731707849.081
1541,-1000.000,-22.461,-31.738,-1000.000,0.000,1731707849.085
1542,-1000.000,-17.090,-27.832,-1000.000,0.000,1731707849.089
1543,-1000.000,-18.066,-29.785,-1000.000,0.000,1731707849.093
1544,-1000.000,-44.434,-33.203,-1000.000,0.000,1731707849.097
1545,-1000.000,-47.363,-32.715,-1000.000,0.000,1731707849.100
1546,-1000.000,-22.949,-31.250,-1000.000,0.000,1731707849.104
1547,-1000.000,-29.785,-31.738,-1000.000,0.000,1731707849.108
1548,-1000.000,-31.250,-34.668,-1000.000,0.000,1731707849.113
1549,-1000.000,-31.738,-36.621,-1000.000,0.000,1731707849.117
1550,-1000.000,-30.273,-31.738,-1000.000,0.000,1731707849.120
1551,-1000.000,-22.949,-25.391,-1000.000,0.000,1731707849.124
1552,-1000.000,-25.879,-22.949,-1000.000,0.000,1731707849.128
1553,-1000.000,-22.949,-25.391,-1000.000,0.000,1731707849.132
1554,-1000.000,-18.555,-29.785,-1000.000,0.000,1731707849.136
1555,-1000.000,-36.621,-30.273,-1000.000,0.000,1731707849.140
1556,-1000.000,-52.246,-27.832,-1000.000,0.000,1731707849.144
1557,-1000.000,-37.598,-31.250,-1000.000,0.000,1731707849.147
1558,-1000.000,-22.461,-29.785,-1000.000,0.000,1731707849.151
1559,-1000.000,-24.414,-24.414,-1000.000,0.000,1731707849.155
1560,-1000.000,-26.855,-25.879,-1000.000,0.000,1731707849.160
1561,-1000.000,-21.484,-31.738,-1000.000,0.000,1731707849.163
1562,-1000.000,-22.461,-30.273,-1000.000,0.000,1731707849.167
1563,-1000.000,-21.484,-28.809,-1000.000,0.000,1731707849.171
1564,-1000.000,-24.414,-31.738,-1000.000,0.000,1731707849.175
1565,-1000.000,-28.320,-36.133,-1000.000,0.000,1731707849.179
1566,-1000.000,-19.531,-37.598,-1000.000,0.000,1731707849.183
1567,-1000.000,-24.902,-34.668,-1000.000,0.000,1731707849.187
1568,-1000.000,-30.273,-28.809,-1000.000,0.000,1731707849.190
1569,-1000.000,-23.438,-27.832,-1000.000,0.000,1731707849.194
1570,-1000.000,-20.996,-27.832,-1000.000,0.000,1731707849.198
1571,-1000.000,-18.555,-27.344,-1000.000,0.000,1731707849.202
1572,-1000.000,-15.625,-23.438,-1000.000,0.000,1731707849.206
1573,-1000.000,-16.113,-23.438,-1000.000,0.000,1731707849.210
1574,-1000.000,-19.043,-29.297,-1000.000,0.000,1731707849.214
1575,-1000.000,-20.020,-25.879,-1000.000,0.000,1731707849.218
1576,-1000.000,-16.113,-24.414,-1000.000,0.000,1731707849.222
1577,-1000.000,-17.578,-31.250,-1000.000,0.000,1731707849.226
1578,-1000.000,-30.273,-37.109,-1000.000,0.000,1731707849.230
1579,-1000.000,-35.156,-37.598,-1000.000,0.000,1731707849.233
1580,-1000.000,-25.879,-34.668,-1000.000,0.000,1731707849.237
1581,-1000.000,-25.391,-31.738,-1000.000,0.000,1731707849.241
1582,-1000.000,-29.297,-29.785,-1000.000,0.000,1731707849.245
1583,-1000.000,-32.227,-29.297,-1000.000,0.000,1731707849.249
1584,-1000.000,-31.738,-24.902,-1000.000,0.000,1731707849.253
1585,-1000.000,-28.809,-22.949,-1000.000,0.000,1731707849.257
1586,-1000.000,-34.668,-23.926,-1000.000,0.000,1731707849.261
1587,-1000.000,-35.645,-26.855,-1000.000,0.000,1731707849.265
1588,-1000.000,-29.297,-24.414,-1000.000,0.000,1731707849.269
1589,-1000.000,-20.020,-20.508,-1000.000,0.000,1731707849.273
1590,-1000.000,-36.133,-23.926,-1000.000,0.000,1731707849.276
1591,-1000.000,-45.898,-34.180,-1000.000,0.000,1731707849.280
1592,-1000.000,-32.227,-34.180,-1000.000,0.000,1731707849.284
1593,-1000.000,-36.621,-27.344,-1000.000,0.000,1731707849.288
1594,-1000.000,-35.645,-27.344,-1000.000,0.000,1731707849.292
1595,-1000.000,-34.668,-26.855,-1000.000,0.000,1731707849.296
1596,-1000.000,-30.762,-25.879,-1000.000,0.000,1731707849.300
1597,-1000.000,-25.391,-22.461,-1000.000,0.000,1731707849.304
1598,-1000.000,-24.902,-16.602,-1000.000,0.000,1731707849.308
1599,-981.445,-26.367,-17.578,-1000.000,0.000,1731707849.312
1600,-976.562,-22.461,-25.391,-1000.000,0.000,1731707849.315
1601,-1000.000,-22.949,-27.344,-1000.000,0.000,1731707849.319
1602,71.289,-21.973,-26.367,-1000.000,0.000,1731707849.323
1603,-928.711,-16.113,-29.297,-1000.000,0.000,1731707849.327
1604,928.711,-21.484,-32.715,-1000.000,0.000,1731707849.331
1605,961.914,-23.926,-33.691,-1000.000,0.000,1731707849.335
1606,908.691,-19.043,-25.879,-1000.000,0.000,1731707849.339
1607,-891.602,-24.414,-21.973,-1000.000,0.000,1731707849.343
1608,0.000,-31.250,-26.855,-1000.000,0.000,1731707849.347
1609,0.000,-30.273,-31.738,-1000.000,0.000,1731707849.351
1610,0.000,-26.367,-34.668,-1000.000,0.000,1731707849.355
1611,0.000,-27.344,-29.297,-1000.000,0.000,1731707849.359
1612,0.000,-30.762,-29.785,-1000.000,0.000,1731707849.363
1613,0.000,-38.086,-34.668,-1000.000,0.000,1731707849.366
1614,0.000,-37.109,-31.250,-1000.000,0.000,1731707849.370
1615,0.000,-36.133,-30.273,-1000.000,0.000,1731707849.374
1616,0.000,-41.016,-34.668,-1000.000,0.000,1731707849.378
1617,0.000,-44.434,-36.133,-1000.000,0.000,1731707849.382
1618,0.000,-36.621,-29.297,-1000.000,0.000,1731707849.386
1619,0.000,-20.508,-26.855,-1000.000,0.000,1731707849.390
1620,219.238,-20.020,-31.738,-1000.000,0.000,1731707849.393
1621,-1000.000,-30.273,-40.039,-1000.000,0.000,1731707849.397
1622,-989.258,-27.344,-39.062,-1000.000,0.000,1731707849.401
1623,-970.703,-16.602,-31.738,-1000.000,0.000,1731707849.405
1624,-1000.000,-23.438,-31.738,-1000.000,0.000,1731707849.409
1625,-1000.000,-26.855,-29.785,-1000.000,0.000,1731707849.413
1626,-1000.000,-19.531,-26.855,-1000.000,0.000,1731707849.416
1627,-1000.000,-15.137,-27.344,-1000.000,0.000,1731707849.420
1628,-1000.000,-34.668,-28.320,-1000.000,0.000,1731707849.424
1629,-1000.000,-56.152,-29.297,-1000.000,0.000,1731707849.428
1630,-1000.000,-36.133,-31.738,-1000.000,0.000,1731707849.432
1631,-1000.000,-24.902,-30.273,-1000.000,0.000,1731707849.436
1632,-1000.000,-23.926,-26.367,-1000.000,0.000,1731707849.440
1633,-935.059,-23.438,-27.344,-1000.000,0.000,1731707849.444
1634,-1000.000,-23.438,-29.297,-1000.000,0.000,1731707849.448
1635,-665.039,-23.438,-33.691,-1000.000,0.000,1731707849.452
1636,751.465,-17.090,-26.367,-1000.000,0.000,1731707849.456
1637,-961.914,-12.207,-21.973,-1000.000,0.000,1731707849.460
1638,911.621,-13.672,-27.832,-1000.000,0.000,1731707849.463
1639,983.887,-12.695,-28.809,-1000.000,0.000,1731707849.467
1640,970.215,-38.574,-27.344,-1000.000,0.000,1731707849.471
1641,970.215,-46.875,-27.832,-1000.000,0.000,1731707849.475
1642,970.215,-26.855,-31.738,-1000.000,0.000,1731707849.479
1643,982.910,-28.320,-34.668,-1000.000,0.000,1731707849.483
1644,899.414,-28.809,-32.715,-1000.000,0.000,1731707849.487
1645,-911.133,-26.367,-32.227,-1000.000,0.000,1731707849.491
1646,509.766,-27.344,-34.668,-1000.000,0.000,1731707849.495
1647,-902.344,-32.227,-35.156,-1000.000,0.000,1731707849.499
1648,-1000.000,-29.297,-33.203,-1000.000,0.000,1731707849.503
1649,-948.730,-23.438,-26.855,-1000.000,0.000,1731707849.507
1650,-1000.000,-14.648,-23.438,-1000.000,0.000,1731707849.510
1651,-1000.000,-24.902,-29.785,-1000.000,0.000,1731707849.514
1652,-1000.000,-49.805,-33.691,-1000.000,0.000,1731707849.518
1653,-1000.000,-34.668,-30.762,-1000.000,0.000,1731707849.522
1654,-1000.000,-20.020,-29.297,-1000.000,0.000,1731707849.526
1655,-1000.000,-22.461,-27.832,-1000.000,0.000,1731707849.530
1656,0.000,-22.461,-27.832,-1000.000,0.000,1731707849.534
1657,0.000,-23.926,-32.227,-1000.000,0.000,1731707849.538
1658,0.000,-24.414,-32.227,-1000.000,0.000,1731707849.542
1659,0.000,-24.414,-32.227,-1000.000,0.000,1731707849.546
1660,0.000,-25.391,-32.715,-1000.000,0.000,1731707849.550
1661,0.000,-14.160,-30.273,-1000.000,0.000,1731707849.553
1662,0.000,-3.906,-25.391,-1000.000,0.000,1731707849.557
1663,0.000,-44.434,-32.227,-1000.000,0.000,1731707849.561
1664,0.000,-53.223,-33.691,-1000.000,0.000,1731707849.565
1665,0.000,-10.742,-23.438,-1000.000,0.000,1731707849.569
1666,0.000,-11.719,-23.438,-1000.000,0.000,1731707849.573
1667,0.000,-22.949,-28.320,-1000.000,0.000,1731707849.577
1668,-1000.000,-22.949,-29.297,-1000.000,0.000,1731707849.580
1669,-1000.000,-19.043,-29.785,-1000.000,0.000,1731707849.584
1670,-979.980,-18.066,-29.785,-1000.000,0.000,1731707849.588
1671,-975.586,-15.137,-26.855,-1000.000,0.000,1731707849.592
1672,-1000.000,-20.996,-26.855,-1000.000,0.000,1731707849.596
1673,96.191,-25.879,-30.762,-1000.000,0.000,1731707849.600
1674,-913.574,-29.785,-32.715,-1000.000,0.000,1731707849.603
1675,921.387,-49.316,-30.273,-1000.000,0.000,1731707849.607
1676,962.891,-38.574,-33.691,-1000.000,0.000,1731707849.611
1677,972.168,-23.438,-33.203,-1000.000,0.000,1731707849.615
1678,970.215,-16.602,-25.879,-1000.000,0.000,1731707849.619
1679,970.215,-19.531,-26.367,-1000.000,0.000,1731707849.623
1680,970.703,-21.973,-29.785,-1000.000,0.000,1731707849.626
1681,968.750,-19.043,-26.367,-1000.000,0.000,1731707849.630
1682,910.645,-22.949,-25.879,-1000.000,0.000,1731707849.634
1683,-895.020,-22.949,-28.809,-1000.000,0.000,1731707849.638
1684,155.762,-19.531,-31.738,-1000.000,0.000,1731707849.642
1685,-1000.000,-14.648,-33.203,-1000.000,0.000,1731707849.646
1686,-979.980,-25.879,-35.645,-1000.000,0.000,1731707849.649
1687,-975.586,-27.344,-34.180,-1000.000,0.000,1731707849.653
1688,-1000.000,-17.090,-30.762,-1000.000,0.000,1731707849.657
1689,-1000.000,-21.484,-27.832,-1000.000,0.000,1731707849.661
1690,-1000.000,-18.066,-27.832,-1000.000,0.000,1731707849.665
1691,-1000.000,-21.973,-25.879,-1000.000,0.000,1731707849.669
1692,970.215,-25.391,-22.949,-1000.000,0.000,1731707849.673
1693,970.215,-24.902,-26.367,-1000.000,0.000,1731707849.677
1694,970.215,-23.926,-25.879,-1000.000,0.000,1731707849.681
1695,969.727,-18.555,-22.949,-1000.000,0.000,1731707849.685
1696,970.215,-19.043,-24.414,-1000.000,0.000,1731707849.689
1697,969.238,-29.785,-30.762,-1000.000,0.000,1731707849.692
1698,974.121,-36.133,-33.691,-1000.000,0.000,1731707849.696
1699,942.871,-21.973,-28.809,-1000.000,0.000,1731707849.700
1700,958.984,-19.043,-26.855,-1000.000,0.000,1731707849.704
1701,-991.699,-24.902,-28.320,-1000.000,0.000,1731707849.708
1702,-219.727,-30.762,-23.926,-1000.000,0.000,1731707849.712
1703,-1000.000,-35.156,-22.461,-1000.000,0.000,1731707849.716
1704,-944.824,-33.203,-27.832,-1000.000,0.000,1731707849.720
1705,-998.535,-27.344,-25.879,-1000.000,0.000,1731707849.724
1706,-1000.000,-23.926,-26.855,-1000.000,0.000,1731707849.728
1707,-1000.000,-28.809,-27.832,-1000.000,0.000,1731707849.732
1708,-1000.000,-26.855,-24.902,-1000.000,0.000,1731707849.736
1709,-1000.000,-21.484,-23.926,-1000.000,0.000,1731707849.739
1710,-1000.000,-23.926,-23.438,-1000.000,0.000,1731707849.743
1711,-1000.000,-29.297,-28.320,-1000.000,0.000,1731707849.747
1712,-1000.000,-30.762,-26.855,-1000.000,0.000,1731707849.751
1713,-1000.000,-35.645,-23.926,-1000.000,0.000,1731707849.755
1714,-963.867,-32.715,-28.320,-1000.000,0.000,1731707849.759
1715,-1000.000,-25.879,-33.203,-937.988,0.000,1731707849.763
1716,-969.727,-27.344,-28.809,-1000.000,0.000,1731707849.767
1717,319.336,-13.184,-23.438,-213.379,0.000,1731707849.771
1718,-913.086,4.883,-20.020,-957.031,0.000,1731707849.775
1719,910.156,5.371,-15.625,953.613,0.000,1731707849.779
1720,987.793,-8.301,-18.555,952.637,0.000,1731707849.783
1721,907.715,-14.648,-19.043,906.250,0.000,1731707849.786
1722,-951.172,-10.254,-21.973,-896.484,0.000,1731707849.790
1723,731.445,-24.902,-31.738,379.395,0.000,1731707849.794
1724,-699.707,-41.992,-36.621,-989.258,0.000,1731707849.798
1725,-1000.000,-31.250,-31.250,-1000.000,0.000,1731707849.802
1726,-936.035,-27.832,-27.344,-958.008,0.000,1731707849.806
1727,-1000.000,-41.504,-35.156,-1000.000,0.000,1731707849.810
1728,0.000,-43.457,-39.551,-1000.000,0.000,1731707849.814
1729,0.000,-36.133,-32.227,-1000.000,0.000,1731707849.818
1730,0.000,-30.762,-26.367,-1000.000,0.000,1731707849.822
1731,0.000,-29.785,-25.879,-1000.000,0.000,1731707849.826
1732,0.000,-25.879,-29.785,-1000.000,0.000,1731707849.830
1733,0.000,-18.555,-27.832,-1000.000,0.000,1731707849.834
1734,0.000,-22.949,-27.832,-1000.000,0.000,1731707849.837
1735,0.000,-32.227,-35.156,-1000.000,0.000,1731707849.841
1736,0.000,-49.316,-43.457,-1000.000,0.000,1731707849.845
1737,0.000,-48.340,-43.457,-1000.000,0.000,1731707849.849
1738,0.000,-27.832,-36.133,-1000.000,0.000,1731707849.853
1739,0.000,-27.344,-32.715,-1000.000,0.000,1731707849.857
1740,-939.453,-33.203,-34.180,-990.234,0.000,1731707849.861
1741,-1000.000,-35.156,-37.109,-955.566,0.000,1731707849.865
1742,-719.727,-31.250,-37.598,-1000.000,0.000,1731707849.869
1743,684.082,-17.090,-34.180,-49.805,0.000,1731707849.873
1744,-952.148,-10.742,-33.203,-926.758,0.000,1731707849.877
1745,910.156,-9.766,-34.180,934.082,0.000,1731707849.880
1746,995.605,-5.371,-30.273,956.543,0.000,1731707849.884
1747,895.996,-27.344,-32.715,910.156,0.000,1731707849.888
1748,-901.367,-40.039,-29.297,-891.113,0.000,1731707849.892
1749,475.586,-23.438,-27.344,207.031,0.000,1731707849.896
1750,-944.824,-35.645,-30.273,-1000.000,0.000,1731707849.900
1751,-1000.000,-42.480,-23.438,-987.305,0.000,1731707849.904
1752,-950.195,-39.551,-22.461,-971.680,0.000,1731707849.908
1753,-1000.000,-42.969,-25.391,-1000.000,0.000,1731707849.912
1754,-1000.000,-36.621,-27.832,-1000.000,0.000,1731707849.916
1755,-1000.000,-27.832,-23.438,-1000.000,0.000,1731707849.920
1756,-1000.000,-33.203,-22.949,-1000.000,0.000,1731707849.924
1757,-1000.000,-36.133,-28.320,-1000.000,0.000,1731707849.927
1758,-1000.000,-19.531,-27.832,-1000.000,0.000,1731707849.931
1759,-1000.000,-41.016,-29.785,-1000.000,0.000,1731707849.935
1760,-1000.000,-61.035,-34.668,-1000.000,0.000,1731707849.939
1761,-1000.000,-40.527,-35.645,-1000.000,0.000,1731707849.943
1762,-1000.000,-31.250,-36.133,-1000.000,0.000,1731707849.947
1763,-1000.000,-32.715,-35.645,-1000.000,0.000,1731707849.951
1764,-1000.000,-30.273,-34.180,-1000.000,0.000,1731707849.955
1765,-1000.000,-26.855,-33.203,-1000.000,0.000,1731707849.959
1766,-1000.000,-25.879,-31.738,-1000.000,0.000,1731707849.963
1767,-1000.000,-26.855,-30.273,-1000.000,0.000,1731707849.967
1768,-1000.000,-28.809,-32.715,-1000.000,0.000,1731707849.970
1769,-1000.000,-24.414,-36.133,-1000.000,0.000,1731707849.974
1770,-931.152,-26.855,-35.156,-942.383,0.000,1731707849.978
1771,-1000.000,-36.621,-32.227,-1000.000,0.000,1731707849.982
1772,-347.656,-26.855,-31.738,-787.598,0.000,1731707849.986
1773,990.234,-5.371,-30.273,619.141,0.000,1731707849.990
1774,975.586,-3.906,-35.156,-937.988,0.000,1731707849.994
1775,932.617,-8.789,-39.062,909.180,0.000,1731707849.997
1776,980.957,-10.254,-32.715,976.074,0.000,1731707850.002
1777,906.738,-17.090,-29.297,919.434,0.000,1731707850.006
1778,-891.602,-20.020,-32.227,-908.203,0.000,1731707850.010
1779,188.965,-30.762,-33.203,79.102,0.000,1731707850.013
1780,-1000.000,-37.109,-31.250,-1000.000,0.000,1731707850.017
1781,-984.375,-29.785,-30.273,-971.191,0.000,1731707850.021
1782,-973.145,-36.621,-31.250,-980.957,0.000,1731707850.025
1783,-1000.000,-41.504,-34.180,-1000.000,0.000,1731707850.029
1784,-1000.000,-37.109,-37.109,-1000.000,0.000,1731707850.033
1785,-1000.000,-35.156,-36.133,-1000.000,0.000,1731707850.037
1786,-1000.000,-35.156,-28.320,-1000.000,0.000,1731707850.040
1787,-1000.000,-36.133,-28.320,-1000.000,0.000,1731707850.044
1788,-1000.000,-30.762,-37.109,-1000.000,0.000,1731707850.049
1789,-1000.000,-26.855,-37.109,-1000.000,0.000,1731707850.053
1790,-1000.000,-26.855,-34.180,-1000.000,0.000,1731707850.056
1791,-1000.000,-28.809,-34.668,-1000.000,0.000,1731707850.060
1792,-1000.000,-34.180,-36.621,-1000.000,0.000,1731707850.064
1793,-999.512,-22.949,-30.762,-1000.000,0.000,1731707850.068
1794,-993.652,-10.254,-22.461,-1000.000,0.000,1731707850.072
1795,-1000.000,-19.043,-25.879,-1000.000,0.000,1731707850.076
1796,-949.219,-26.367,-30.273,-991.211,0.000,1731707850.080
1797,-1000.000,-28.320,-29.297,-953.613,0.000,1731707850.083
1798,-685.547,-30.762,-29.297,-1000.000,0.000,1731707850.087
1799,640.137,-20.996,-30.762,-67.383,0.000,1731707850.091
1800,-959.473,-12.695,-33.203,-928.711,0.000,1731707850.096
1801,932.617,-16.113,-28.809,945.801,0.000,1731707850.100
1802,913.574,-16.113,-20.020,882.324,0.000,1731707850.103
1803,-946.777,-14.648,-18.555,-894.043,0.000,1731707850.107
1804,714.355,-26.367,-22.461,405.762,0.000,1731707850.111
1805,-720.703,-42.480,-21.973,-976.562,0.000,1731707850.115
1806,-1000.000,-34.180,-20.996,-1000.000,0.000,1731707850.119
1807,-937.012,-28.320,-22.949,-955.566,0.000,1731707850.123
1808,-1000.000,-39.062,-25.879,-1000.000,0.000,1731707850.127
1809,-1000.000,-40.527,-31.250,-1000.000,0.000,1731707850.131
1810,-1000.000,-28.809,-26.367,-1000.000,0.000,1731707850.134
1811,-1000.000,-25.391,-21.484,-1000.000,0.000,1731707850.138
1812,-1000.000,-30.762,-32.227,-1000.000,0.000,1731707850.143
1813,-1000.000,-31.250,-38.086,-1000.000,0.000,1731707850.147
1814,-1000.000,-27.344,-30.273,-1000.000,0.000,1731707850.151
1815,-1000.000,-24.902,-29.785,-1000.000,0.000,1731707850.154
1816,-1000.000,-33.203,-33.203,-1000.000,0.000,1731707850.158
1817,-1000.000,-33.691,-33.691,-1000.000,0.000,1731707850.162
1818,-1000.000,-30.273,-33.203,-1000.000,0.000,1731707850.166
1819,-1000.000,-33.203,-30.762,-1000.000,0.000,1731707850.170
1820,-1000.000,-30.762,-30.273,-1000.000,0.000,1731707850.174
1821,-1000.000,-33.691,-33.691,-1000.000,0.000,1731707850.178
1822,-1000.000,-32.227,-34.180,-1000.000,0.000,1731707850.181
1823,-1000.000,-24.902,-27.832,-1000.000,0.000,1731707850.185
1824,-1000.000,-29.785,-26.855,-1000.000,0.000,1731707850.190
1825,-1000.000,-36.621,-31.250,-1000.000,0.000,1731707850.194
1826,-1000.000,-38.086,-32.227,-1000.000,0.000,1731707850.198
1827,-1000.000,-33.203,-30.273,-1000.000,0.000,1731707850.201
1828,-1000.000,-29.785,-23.438,-1000.000,0.000,1731707850.205
1829,-969.238,-31.738,-23.438,-1000.000,0.000,1731707850.209
1830,-999.512,-29.785,-27.344,-987.305,0.000,1731707850.213
1831,-1000.000,-21.484,-28.320,-958.984,0.000,1731707850.217
1832,243.164,-30.762,-26.855,-1000.000,0.000,1731707850.221
1833,-911.621,-26.855,-29.297,-43.945,0.000,1731707850.225
1834,913.086,-7.812,-32.227,-855.469,0.000,1731707850.228
1835,974.609,-17.578,-28.809,-96.680,0.000,1731707850.232
1836,903.320,-23.438,-27.344,-1000.000,0.000,1731707850.237
1837,-891.113,-23.438,-30.762,-957.520,0.000,1731707850.241
1838,272.949,-30.273,-29.297,-988.281,0.000,1731707850.244
1839,-1000.000,-34.668,-25.391,-1000.000,0.000,1731707850.248
1840,-998.047,-28.320,-21.484,-1000.000,0.000,1731707850.252
1841,-966.309,-26.855,-17.090,-1000.000,0.000,1731707850.256
1842,-1000.000,-26.367,-20.996,-1000.000,0.000,1731707850.260
1843,-1000.000,-26.367,-24.902,-1000.000,0.000,1731707850.264
1844,-1000.000,-30.762,-24.414,-1000.000,0.000,1731707850.268
1845,-1000.000,-31.738,-25.879,-1000.000,0.000,1731707850.272
1846,-998.535,-24.902,-26.855,-1000.000,0.000,1731707850.275
1847,-941.895,-24.902,-30.273,-928.711,0.000,1731707850.279
1848,0.000,-28.320,-31.250,-1000.000,0.000,1731707850.284
1849,0.000,-4.883,-23.438,-463.379,0.000,1731707850.288
1850,0.000,15.137,-20.508,929.688,0.000,1731707850.291
1851,0.000,-2.441,-26.367,998.535,0.000,1731707850.295
1852,0.000,-17.578,-27.832,931.152,0.000,1731707850.299
1853,0.000,-13.672,-25.879,952.148,0.000,1731707850.303
1854,0.000,-8.301,-22.461,970.215,0.000,1731707850.307
1855,0.000,-22.461,-26.367,976.562,0.000,1731707850.311
1856,0.000,-43.945,-30.762,-277.344,0.000,1731707850.315
1857,0.000,-42.480,-27.832,-1000.000,0.000,1731707850.318
1858,0.000,-33.203,-22.949,-943.359,0.000,1731707850.322
1859,0.000,-32.227,-22.461,-1000.000,0.000,1731707850.326
1860,-1000.000,-30.762,-23.926,-1000.000,0.000,1731707850.331
1861,-1000.000,-25.391,-23.438,-1000.000,0.000,1731707850.334
1862,-1000.000,-21.973,-20.996,-1000.000,0.000,1731707850.338
1863,-1000.000,-27.344,-20.020,-1000.000,0.000,1731707850.342
1864,-1000.000,-32.227,-28.809,-1000.000,0.000,1731707850.346
1865,-943.359,-19.531,-27.832,-948.730,0.000,1731707850.350
1866,-1000.000,-15.625,-26.855,-1000.000,0.000,1731707850.354
1867,-814.941,-36.133,-29.297,-784.668,0.000,1731707850.358
1868,594.727,-20.020,-31.250,569.336,0.000,1731707850.361
1869,-932.617,1.465,-32.227,-939.941,0.000,1731707850.365
1870,904.785,-1.953,-25.391,912.109,0.000,1731707850.369
1871,982.422,-10.254,-22.461,979.492,0.000,1731707850.373
1872,0.000,-13.672,-23.438,970.703,0.000,1731707850.377
1873,0.000,-16.602,-28.809,970.215,0.000,1731707850.381
1874,0.000,-19.043,-27.832,972.168,0.000,1731707850.385
1875,0.000,-18.066,-20.996,959.961,0.000,1731707850.389
1876,0.000,-23.926,-22.461,998.535,0.000,1731707850.393
1877,0.000,-22.461,-20.508,874.023,0.000,1731707850.397
1878,0.000,-14.160,-13.184,812.988,0.000,1731707850.401
1879,0.000,-27.344,-17.578,912.109,0.000,1731707850.404
1880,0.000,-35.645,-20.996,-932.617,0.000,1731707850.408
1881,0.000,-37.109,-22.461,623.047,0.000,1731707850.412
1882,0.000,-52.246,-28.320,-768.555,0.000,1731707850.416
1883,0.000,-50.781,-24.902,-1000.000,0.000,1731707850.420
1884,-933.594,-37.109,-21.973,-943.848,0.000,1731707850.424
1885,-1000.000,-40.039,-27.344,-1000.000,0.000,1731707850.428
1886,-926.270,-38.574,-29.785,-932.617,0.000,1731707850.432
1887,-1000.000,-33.203,-24.902,-1000.000,0.000,1731707850.436
1888,-484.375,-25.879,-20.996,-319.824,0.000,1731707850.440
1889,928.223,-10.254,-23.926,-998.535,0.000,1731707850.444
1890,-999.023,-9.766,-29.785,971.680,0.000,1731707850.447
1891,920.898,-16.602,-28.809,935.059,0.000,1731707850.451
1892,983.887,-25.391,-27.832,979.980,0.000,1731707850.455
1893,969.727,-32.227,-29.785,970.703,0.000,1731707850.459
1894,969.727,-33.691,-33.203,970.703,0.000,1731707850.463
1895,983.887,-34.180,-35.645,980.957,0.000,1731707850.467
1896,895.508,-36.133,-30.762,898.926,0.000,1731707850.471
1897,-902.832,-29.785,-32.227,-898.438,0.000,1731707850.475
1898,497.070,-34.668,-31.738,414.062,0.000,1731707850.479
1899,-933.594,-45.898,-26.855,-972.168,0.000,1731707850.483
1900,-1000.000,-39.062,-28.320,-1000.000,0.000,1731707850.487
1901,-948.242,-38.086,-31.738,-955.078,0.000,1731707850.491
1902,-1000.000,-35.156,-32.227,-1000.000,0.000,1731707850.494
1903,-1000.000,-36.133,-33.203,-1000.000,0.000,1731707850.498
1904,-1000.000,-36.621,-29.785,-1000.000,0.000,1731707850.502
1905,-1000.000,-36.621,-24.414,-1000.000,0.000,1731707850.506
1906,-1000.000,-41.016,-29.785,-1000.000,0.000,1731707850.510
1907,-934.082,-36.133,-36.621,-930.664,0.000,1731707850.514
1908,-1000.000,-24.902,-34.180,-1000.000,0.000,1731707850.518
1909,-714.355,-15.625,-29.297,-522.461,0.000,1731707850.522
1910,727.051,-4.883,-24.414,878.418,0.000,1731707850.526
1911,-951.660,0.000,-20.996,-989.258,0.000,1731707850.530
1912,907.227,-3.418,-21.484,920.410,0.000,1731707850.534
1913,984.863,-8.789,-26.367,983.887,0.000,1731707850.538
1914,970.215,-12.207,-32.227,970.703,0.000,1731707850.541
1915,969.727,-15.625,-28.809,970.703,0.000,1731707850.545
1916,969.727,-17.090,-25.391,970.703,0.000,1731707850.549
1917,981.445,-15.137,-21.973,975.098,0.000,1731707850.553
1918,896.484,-8.789,-22.461,904.297,0.000,1731707850.557
1919,-895.996,-6.348,-23.926,-893.066,0.000,1731707850.561
1920,417.969,-17.578,-25.879,272.461,0.000,1731707850.565
1921,-977.539,-36.621,-29.785,-1000.000,0.000,1731707850.569
1922,-1000.000,-37.109,-26.855,-999.023,0.000,1731707850.573
1923,-955.078,-32.227,-26.855,-968.262,0.000,1731707850.577
1924,-1000.000,-29.297,-25.391,-1000.000,0.000,1731707850.581
1925,-937.500,-22.949,-21.484,-953.125,0.000,1731707850.585
1926,-1000.000,-19.531,-25.391,-1000.000,0.000,1731707850.588
1927,-219.238,-12.207,-26.367,-98.633,0.000,1731707850.592
1928,-958.496,0.000,-24.902,-943.359,0.000,1731707850.596
1929,953.613,-4.883,-21.484,942.383,0.000,1731707850.600
1930,942.383,-13.184,-15.137,950.684,0.000,1731707850.604
1931,976.562,-13.184,-18.555,975.586,0.000,1731707850.608
1932,969.727,-14.648,0.000,970.703,0.000,1731707850.612
1933,970.215,-20.020,0.000,970.703,0.000,1731707850.616
1934,969.727,-17.578,0.000,970.703,0.000,1731707850.620
1935,969.727,-16.602,0.000,970.703,0.000,1731707850.624
1936,969.727,-28.320,0.000,970.703,0.000,1731707850.628
1937,970.215,-25.879,0.000,971.191,0.000,1731707850.632
1938,969.238,-20.020,0.000,968.262,0.000,1731707850.635
1939,909.180,-27.832,0.000,912.598,0.000,1731707850.639
1940,-893.066,-24.902,0.000,-895.996,0.000,1731707850.643
1941,166.504,-38.086,0.000,139.160,0.000,1731707850.647
1942,-1000.000,-52.734,0.000,-1000.000,0.000,1731707850.651
1943,-980.957,-47.852,0.000,-977.539,0.000,1731707850.655
1944,-975.098,-49.805,-28.320,-977.051,0.000,1731707850.659
1945,-1000.000,-46.875,-36.133,-1000.000,0.000,1731707850.663
1946,-1000.000,-40.039,-32.227,-1000.000,0.000,1731707850.667
1947,-1000.000,-27.832,-23.926,-1000.000,0.000,1731707850.671
1948,-1000.000,-23.926,-24.414,-1000.000,0.000,1731707850.675
1949,-984.375,-32.715,-32.715,-967.773,0.000,1731707850.678
1950,-963.379,-29.785,-33.691,-1000.000,0.000,1731707850.682
1951,-1000.000,-23.926,-28.809,-993.164,0.000,1731707850.686
1952,37.598,-15.137,-30.762,267.578,0.000,1731707850.690
1953,-905.762,-6.836,-26.855,-912.598,0.000,1731707850.694
1954,920.898,-7.812,-25.391,913.574,0.000,1731707850.698
1955,960.938,-10.254,-26.367,971.191,0.000,1731707850.702
1956,971.680,-12.695,-25.391,971.191,0.000,1731707850.706
1957,969.727,-8.301,-23.926,970.703,0.000,1731707850.710
1958,969.727,-8.789,-24.902,970.703,0.000,1731707850.714
1959,971.680,-18.066,-31.250,976.562,0.000,1731707850.718
1960,959.473,-24.414,-35.156,944.336,0.000,1731707850.722
1961,923.340,-25.879,-30.273,959.473,0.000,1731707850.725
1962,-909.668,-23.438,-27.832,999.023,0.000,1731707850.729
1963,14.160,-41.504,-33.203,-202.637,0.000,1731707850.733
1964,-1000.000,-52.246,-32.715,-1000.000,0.000,1731707850.737
1965,-960.938,-35.645,-27.344,-949.707,0.000,1731707850.741
1966,-997.070,-33.203,-28.809,-1000.000,0.000,1731707850.745
1967,-959.961,-33.203,-34.180,-937.500,0.000,1731707850.749
1968,-1000.000,-33.203,-34.668,-1000.000,0.000,1731707850.753
1969,-952.148,-29.785,-34.180,-627.930,0.000,1731707850.757
1970,400.391,-13.184,-31.738,771.484,0.000,1731707850.761
1971,-908.203,-9.766,-25.391,-968.750,0.000,1731707850.764
1972,903.320,-16.113,-21.973,915.039,0.000,1731707850.768
1973,977.539,-12.207,-20.020,983.398,0.000,1731707850.772
1974,969.727,-26.855,-26.367,970.703,0.000,1731707850.776
1975,969.727,-40.039,-38.086,970.703,0.000,1731707850.780
1976,976.074,-26.367,-38.086,979.492,0.000,1731707850.784
1977,944.336,-23.926,-31.250,930.176,0.000,1731707850.788
1978,952.148,-25.391,-25.879,994.141,0.000,1731707850.792
1979,-961.426,-24.902,-26.855,892.578,0.000,1731707850.795
1980,-199.219,-44.434,-33.691,-413.086,0.000,1731707850.800
1981,-1000.000,-55.176,-30.273,-1000.000,0.000,1731707850.804
1982,-940.918,-41.992,-24.414,-941.406,0.000,1731707850.807
1983,-1000.000,-38.086,-25.391,-1000.000,0.000,1731707850.811
1984,-968.750,-34.180,-27.344,-940.430,0.000,1731707850.815
1985,-996.582,-25.879,-26.367,-1000.000,0.000,1731707850.819
1986,-1000.000,-23.926,-24.902,-655.273,0.000,1731707850.823
1987,250.488,-14.648,-24.414,725.098,0.000,1731707850.827
1988,-897.949,-4.883,-24.414,-963.379,0.000,1731707850.831
1989,906.738,-15.625,-28.809,915.527,0.000,1731707850.835
1990,972.656,-23.438,-26.855,981.934,0.000,1731707850.838
1991,970.215,-25.879,-24.414,970.703,0.000,1731707850.842
1992,970.215,-24.414,-27.832,970.215,0.000,1731707850.847
1993,976.562,-19.043,-25.879,979.492,0.000,1731707850.851
1994,942.871,-17.578,-23.438,931.152,0.000,1731707850.854
1995,954.590,-24.414,-30.273,988.770,0.000,1731707850.858
1996,-968.262,-28.320,-31.250,920.410,0.000,1731707850.862
1997,-216.797,-34.180,-24.414,-386.230,0.000,1731707850.866
1998,-1000.000,-42.969,-24.414,-1000.000,0.000,1731707850.870
1999,-939.941,-45.410,-29.785,-939.941,0.000,1731707850.874
2000,-1000.000,-46.387,-36.133,-1000.000,0.000,1731707850.878
2001,-1000.000,-43.457,-37.109,-997.070,0.000,1731707850.882
2002,-1000.000,-36.621,-32.227,-1000.000,0.000,1731707850.885
2003,-1000.000,-35.645,-28.320,-999.023,0.000,1731707850.889
2004,-1000.000,-33.691,-28.809,-927.246,0.000,1731707850.894
2005,-930.664,-33.691,-34.180,-907.227,0.000,1731707850.898
2006,-1000.000,-30.762,-32.227,-1000.000,0.000,1731707850.901
2007,-347.656,-15.625,-27.344,-265.625,0.000,1731707850.905
2008,993.652,-6.836,-32.227,-979.004,0.000,1731707850.909
2009,975.098,-6.348,-34.180,962.891,0.000,1731707850.913
2010,932.617,-6.348,-30.273,938.965,0.000,1731707850.917
2011,980.469,-13.672,-28.809,979.004,0.000,1731707850.921
2012,969.727,-30.273,-29.297,970.703,0.000,1731707850.925
2013,970.215,-35.156,-29.297,970.703,0.000,1731707850.929
2014,969.727,-22.461,-31.738,970.703,0.000,1731707850.932
2015,970.215,-15.625,-31.250,970.703,0.000,1731707850.936
2016,970.215,-18.555,-30.762,970.703,0.000,1731707850.941
2017,970.215,-22.949,-31.738,970.215,0.000,1731707850.945
2018,970.215,-27.832,-33.691,970.703,0.000,1731707850.948
2019,969.727,-27.832,-30.273,970.703,0.000,1731707850.952
2020,970.215,-27.344,-24.902,970.703,0.000,1731707850.956
2021,970.215,-28.320,-23.926,970.703,0.000,1731707850.960
2022,970.215,-20.508,-25.879,970.703,0.000,1731707850.964
2023,970.215,-20.020,-31.250,970.703,0.000,1731707850.968
2024,970.215,-13.672,-27.344,970.703,0.000,1731707850.972
2025,969.727,-11.230,-24.414,970.703,0.000,1731707850.976
2026,969.727,-25.391,-30.273,970.703,0.000,1731707850.979
2027,970.215,-29.785,-26.367,970.703,0.000,1731707850.983
2028,970.215,-27.344,-18.555,970.703,0.000,1731707850.988
2029,970.215,-24.414,-17.090,970.703,0.000,1731707850.992
2030,969.727,-26.855,-20.020,970.703,0.000,1731707850.995
2031,969.727,-29.785,-26.367,970.215,0.000,1731707850.999
2032,969.727,-28.809,-27.832,970.215,0.000,1731707851.003
