,TP9,AF7,AF8,TP10,Right AUX,timestamps
0,0.000,0.000,0.000,-0.488,0.000,1731708173.942
1,0.000,0.000,0.000,-0.488,0.000,1731708173.946
2,0.000,-0.977,-0.977,30.762,0.000,1731708173.950
3,0.000,0.977,1.465,-68.359,0.000,1731708173.954
4,0.000,-5.859,-9.277,384.277,0.000,1731708173.958
5,0.000,-19.043,-25.391,-994.629,0.000,1731708173.962
6,0.000,-19.043,-28.320,962.402,0.000,1731708173.965
7,0.000,-19.531,-29.297,957.031,0.000,1731708173.969
8,0.000,-30.762,-20.020,973.633,0.000,1731708173.973
9,0.000,-25.879,-16.602,970.703,0.000,1731708173.977
10,0.000,-15.137,-24.902,970.703,0.000,1731708173.981
11,0.000,-14.648,-26.855,970.703,0.000,1731708173.985
12,969.727,-13.672,-30.273,970.703,0.000,1731708173.988
13,969.727,-13.184,-44.434,970.703,0.000,1731708173.991
14,969.727,-9.766,-41.504,970.703,0.000,1731708173.995
15,970.215,-13.672,-34.180,970.703,0.000,1731708173.999
16,969.727,-17.090,-36.621,970.703,0.000,1731708174.003
17,969.727,-13.672,-34.180,970.703,0.000,1731708174.006
18,969.727,-5.371,-30.762,970.703,0.000,1731708174.010
19,970.215,-20.508,-34.180,970.703,0.000,1731708174.014
20,969.727,-38.574,-40.039,970.215,0.000,1731708174.018
21,969.727,-23.438,-30.762,970.215,0.000,1731708174.021
22,969.727,-13.184,-29.785,970.703,0.000,1731708174.025
23,970.215,-15.625,-33.203,970.215,0.000,1731708174.029
24,970.215,-21.973,-23.438,970.215,0.000,1731708174.030
25,969.727,-20.508,-28.320,970.703,0.000,1731708174.034
26,969.727,-16.602,-36.133,970.703,0.000,1731708174.037
27,970.215,-24.902,-31.738,970.703,0.000,1731708174.041
28,969.727,-30.273,-34.180,970.703,0.000,1731708174.044
29,969.727,-29.785,-28.809,970.703,0.000,1731708174.048
30,969.727,-32.227,-28.320,970.703,0.000,1731708174.052
31,970.215,-48.828,-40.527,970.703,0.000,1731708174.055
32,970.215,-55.664,-41.016,970.703,0.000,1731708174.059
33,969.727,-42.969,-35.645,970.215,0.000,1731708174.063
34,970.215,-34.180,-48.828,970.703,0.000,1731708174.066
35,970.215,-37.598,-46.387,970.703,0.000,1731708174.070
36,972.168,-43.945,-49.316,970.703,0.000,1731708174.070
37,905.273,-41.016,-54.688,970.703,0.000,1731708174.073
38,-890.625,-39.551,-48.340,970.215,0.000,1731708174.077
39,218.750,-44.434,-48.340,970.215,0.000,1731708174.080
40,-1000.000,-51.270,-47.363,970.703,0.000,1731708174.084
41,-988.770,-47.363,-48.828,970.703,0.000,1731708174.087
42,-970.703,-44.922,-41.504,974.609,0.000,1731708174.091
43,-1000.000,-50.293,-44.922,953.125,0.000,1731708174.094
44,-1000.000,-44.922,-53.223,944.824,0.000,1731708174.098
45,-1000.000,-41.016,-46.875,-978.516,0.000,1731708174.101
46,-1000.000,-45.410,-49.805,-73.242,0.000,1731708174.105
47,-1000.000,-49.316,-45.898,-1000.000,0.000,1731708174.109
48,-1000.000,-45.410,-43.945,-964.355,0.000,1731708174.108
49,-1000.000,-45.410,-49.805,-987.305,0.000,1731708174.112
50,-1000.000,-44.434,-50.781,-1000.000,0.000,1731708174.115
51,-1000.000,-39.551,-45.898,-1000.000,0.000,1731708174.119
52,-1000.000,-35.645,-42.969,-1000.000,0.000,1731708174.122
53,-1000.000,-30.273,-46.875,-1000.000,0.000,1731708174.126
54,-1000.000,-27.344,-53.223,-1000.000,0.000,1731708174.129
55,-1000.000,-31.738,-45.898,-1000.000,0.000,1731708174.132
56,-1000.000,-35.645,-35.156,-1000.000,0.000,1731708174.136
57,-1000.000,-37.598,-31.250,-1000.000,0.000,1731708174.139
58,-1000.000,-41.504,-41.016,-1000.000,0.000,1731708174.143
59,-1000.000,-37.109,-40.039,-1000.000,0.000,1731708174.146
60,0.000,-29.785,-33.203,-1000.000,0.000,1731708174.147
61,0.000,-31.250,-33.203,-1000.000,0.000,1731708174.150
62,0.000,-35.645,-31.738,-1000.000,0.000,1731708174.154
63,0.000,-32.715,-30.273,-1000.000,0.000,1731708174.157
64,0.000,-28.320,-34.180,-1000.000,0.000,1731708174.161
65,0.000,-34.668,-35.156,-1000.000,0.000,1731708174.164
66,0.000,-38.086,-35.156,-1000.000,0.000,1731708174.167
67,0.000,-32.227,-36.133,-1000.000,0.000,1731708174.171
68,0.000,-31.250,-33.691,-1000.000,0.000,1731708174.174
69,0.000,-28.320,-35.645,-1000.000,0.000,1731708174.178
70,0.000,-24.414,-34.668,-1000.000,0.000,1731708174.181
71,0.000,-24.414,-33.203,-1000.000,0.000,1731708174.184
72,-1000.000,-21.484,-27.832,-1000.000,0.000,1731708174.188
73,-1000.000,-20.020,-24.902,-1000.000,0.000,1731708174.191
74,-1000.000,-20.508,-26.367,-1000.000,0.000,1731708174.195
75,-1000.000,-19.531,-24.414,-1000.000,0.000,1731708174.198
76,-1000.000,-16.602,-24.902,-1000.000,0.000,1731708174.202
77,-1000.000,-12.207,-24.902,-1000.000,0.000,1731708174.205
78,-1000.000,-17.090,-24.414,-1000.000,0.000,1731708174.209
79,-1000.000,-25.879,-23.438,-1000.000,0.000,1731708174.212
80,-1000.000,-30.273,-26.367,-1000.000,0.000,1731708174.215
81,-1000.000,-38.574,-26.855,-1000.000,0.000,1731708174.219
82,-1000.000,-33.203,-21.484,-1000.000,0.000,1731708174.222
83,-1000.000,-18.555,-22.949,-1000.000,0.000,1731708174.226
84,-1000.000,-15.137,-16.602,-1000.000,0.000,1731708174.230
85,-1000.000,-20.020,-13.672,-1000.000,0.000,1731708174.233
86,-1000.000,-25.391,-17.090,-1000.000,0.000,1731708174.237
87,-1000.000,-28.320,-32.715,-1000.000,0.000,1731708174.240
88,-1000.000,-27.344,-28.809,-1000.000,0.000,1731708174.243
89,-1000.000,-23.926,-21.484,-1000.000,0.000,1731708174.247
90,-1000.000,-20.020,-29.785,-1000.000,0.000,1731708174.250
91,-1000.000,-22.949,-29.297,-1000.000,0.000,1731708174.254
92,-1000.000,-49.316,-17.578,-1000.000,0.000,1731708174.257
93,-1000.000,-68.848,-1.465,-1000.000,0.000,1731708174.261
94,-1000.000,-40.527,-1.465,-1000.000,0.000,1731708174.264
95,-1000.000,-39.062,-6.836,-1000.000,0.000,1731708174.267
96,-1000.000,-51.758,-3.906,-1000.000,0.000,1731708174.272
97,-1000.000,-43.457,-2.441,-1000.000,0.000,1731708174.275
98,-1000.000,-37.109,-4.395,-1000.000,0.000,1731708174.279
99,-1000.000,-34.668,-17.090,-1000.000,0.000,1731708174.282
100,-1000.000,-35.645,-21.973,-1000.000,0.000,1731708174.286
101,-1000.000,-35.645,-15.137,-1000.000,0.000,1731708174.289
102,-1000.000,-19.531,-8.789,-1000.000,0.000,1731708174.293
103,-1000.000,-17.578,-10.742,-1000.000,0.000,1731708174.296
104,-1000.000,-47.363,-20.020,-1000.000,0.000,1731708174.299
105,-1000.000,-45.898,-20.020,-1000.000,0.000,1731708174.303
106,-1000.000,-23.438,-18.066,-1000.000,0.000,1731708174.306
107,-1000.000,-25.879,-14.648,-1000.000,0.000,1731708174.310
108,-1000.000,-20.996,-13.672,-1000.000,0.000,1731708174.315
109,-1000.000,-23.926,-24.414,-1000.000,0.000,1731708174.318
110,-1000.000,-28.809,-24.902,-1000.000,0.000,1731708174.321
111,-1000.000,-28.809,-23.438,-1000.000,0.000,1731708174.325
112,-1000.000,-36.133,-25.879,-1000.000,0.000,1731708174.328
113,-962.891,-32.715,-24.414,-1000.000,0.000,1731708174.332
114,-1000.000,-31.250,-24.902,-1000.000,0.000,1731708174.335
115,-812.500,-33.203,-27.832,-1000.000,0.000,1731708174.339
116,-26.855,-31.250,-30.273,-1000.000,0.000,1731708174.342
117,-492.188,-30.762,-37.598,-1000.000,0.000,1731708174.346
118,-1000.000,-31.738,-37.109,-1000.000,0.000,1731708174.349
119,-173.340,-22.949,-28.809,-1000.000,0.000,1731708174.352
120,-959.473,-18.555,0.000,-1000.000,0.000,1731708174.357
121,953.125,-26.855,0.000,-1000.000,0.000,1731708174.361
122,943.359,-29.297,0.000,-1000.000,0.000,1731708174.364
123,974.609,-26.367,0.000,-1000.000,0.000,1731708174.368
124,971.680,-26.855,0.000,-1000.000,0.000,1731708174.371
125,971.680,-28.320,0.000,-1000.000,0.000,1731708174.375
126,925.293,-21.484,0.000,-1000.000,0.000,1731708174.378
127,948.242,-45.410,0.000,-1000.000,0.000,1731708174.382
128,919.434,-51.758,0.000,-1000.000,0.000,1731708174.385
129,-898.926,-26.367,0.000,-1000.000,0.000,1731708174.389
130,148.926,-28.320,0.000,-1000.000,0.000,1731708174.392
131,-1000.000,-33.691,0.000,-1000.000,0.000,1731708174.396
132,0.000,-25.391,-17.578,-1000.000,0.000,1731708174.401
133,0.000,-23.926,-20.996,-1000.000,0.000,1731708174.404
134,0.000,-24.902,-24.902,-1000.000,0.000,1731708174.408
135,0.000,-17.090,-19.531,-1000.000,0.000,1731708174.411
136,0.000,-16.113,-18.066,-1000.000,0.000,1731708174.415
137,0.000,-10.254,-19.043,-1000.000,0.000,1731708174.418
138,0.000,-26.367,-20.020,-1000.000,0.000,1731708174.422
139,0.000,-49.805,-20.020,-1000.000,0.000,1731708174.425
140,0.000,-24.902,-16.602,-1000.000,0.000,1731708174.429
141,0.000,-11.230,-15.625,-1000.000,0.000,1731708174.432
142,0.000,-18.066,-15.137,-1000.000,0.000,1731708174.435
143,0.000,-20.996,-18.555,-1000.000,0.000,1731708174.439
144,-1000.000,-21.484,-22.461,-1000.000,0.000,1731708174.444
145,-981.445,-27.832,-22.949,-1000.000,0.000,1731708174.448
146,-979.004,-37.598,-21.973,-1000.000,0.000,1731708174.451
147,-992.676,-32.715,-32.227,-1000.000,0.000,1731708174.455
148,-982.910,-16.602,-38.574,-1000.000,0.000,1731708174.458
149,-995.117,-9.277,-37.109,-1000.000,0.000,1731708174.462
150,-142.090,-10.254,-43.457,-1000.000,0.000,1731708174.465
151,898.926,-11.230,-43.945,-1000.000,0.000,1731708174.469
152,984.863,-14.648,-44.434,-1000.000,0.000,1731708174.472
153,910.156,-12.207,-45.410,-1000.000,0.000,1731708174.476
154,979.004,-12.695,-40.527,-1000.000,0.000,1731708174.479
155,971.191,-17.578,-42.480,-1000.000,0.000,1731708174.483
156,0.000,-25.879,0.000,-1000.000,0.000,1731708174.490
157,0.000,-32.227,0.000,-1000.000,0.000,1731708174.493
158,0.000,-23.438,0.000,-1000.000,0.000,1731708174.497
159,0.000,-23.926,0.000,-1000.000,0.000,1731708174.500
160,0.000,-29.297,0.000,-1000.000,0.000,1731708174.504
161,0.000,-21.484,0.000,-1000.000,0.000,1731708174.507
162,0.000,-19.043,0.000,-1000.000,0.000,1731708174.511
163,0.000,-29.297,0.000,-1000.000,0.000,1731708174.514
164,0.000,-36.133,0.000,-1000.000,0.000,1731708174.518
165,0.000,-28.809,0.000,-1000.000,0.000,1731708174.521
166,0.000,-27.832,0.000,-1000.000,0.000,1731708174.525
167,0.000,-27.344,0.000,-1000.000,0.000,1731708174.529
168,255.371,-26.855,-33.203,-1000.000,0.000,1731708174.535
169,-1000.000,-39.062,-34.180,-1000.000,0.000,1731708174.539
170,-995.605,-43.945,-34.180,-1000.000,0.000,1731708174.543
171,-967.773,-36.133,-36.621,-1000.000,0.000,1731708174.546
172,-1000.000,-33.203,-34.668,-1000.000,0.000,1731708174.550
173,-933.105,-38.086,-36.133,-1000.000,0.000,1731708174.553
174,-1000.000,-38.574,-29.297,-1000.000,0.000,1731708174.557
175,-333.008,-28.809,-19.043,-1000.000,0.000,1731708174.560
176,-979.492,-26.367,-24.902,-1000.000,0.000,1731708174.564
177,847.168,-34.668,-22.461,-1000.000,0.000,1731708174.567
178,810.059,-27.832,-16.602,-1000.000,0.000,1731708174.571
179,931.641,-22.461,-14.160,-1000.000,0.000,1731708174.574
180,-909.668,-27.344,-16.602,-1000.000,0.000,1731708174.581
181,422.363,-31.250,-21.484,-1000.000,0.000,1731708174.584
182,-1000.000,-32.715,-16.602,-986.328,0.000,1731708174.588
183,-963.379,-26.855,-14.160,-989.746,0.000,1731708174.592
184,374.023,-24.902,-19.531,-1000.000,0.000,1731708174.595
185,-934.082,-13.184,-22.461,-127.930,0.000,1731708174.599
186,914.551,-10.254,-8.789,-177.246,0.000,1731708174.602
187,970.215,-28.809,1.465,-1000.000,0.000,1731708174.606
188,911.621,-41.504,-3.418,-980.957,0.000,1731708174.609
189,-895.508,-49.316,-5.859,-998.535,0.000,1731708174.613
190,211.914,-37.598,-7.324,-950.684,0.000,1731708174.616
191,-1000.000,-33.203,-4.395,-1000.000,0.000,1731708174.620
192,-198.730,-34.668,-3.906,-867.188,0.000,1731708174.627
193,-936.035,-16.113,-4.883,539.062,0.000,1731708174.630
194,948.242,-2.441,-13.184,-935.059,0.000,1731708174.634
195,942.383,-21.973,-6.836,-331.543,0.000,1731708174.637
196,977.539,-37.109,0.977,-1000.000,0.000,1731708174.641
197,975.098,-21.973,2.930,12.207,0.000,1731708174.644
198,904.297,-5.371,-0.977,-795.410,0.000,1731708174.648
199,-898.926,-9.766,-15.137,302.246,0.000,1731708174.651
200,297.852,-41.992,-16.602,-1000.000,0.000,1731708174.655
201,-1000.000,-51.270,-11.719,-1000.000,0.000,1731708174.659
202,-1000.000,-31.250,-11.719,-973.145,0.000,1731708174.662
203,-902.344,-28.320,-15.137,-949.219,0.000,1731708174.666
204,-1000.000,-34.180,-8.789,-1000.000,0.000,1731708174.672
205,-769.043,-27.344,-6.836,-682.129,0.000,1731708174.676
206,658.203,-7.812,-3.906,715.820,0.000,1731708174.679
207,-940.918,-8.301,-9.277,-958.008,0.000,1731708174.683
208,905.762,-9.277,-22.949,913.086,0.000,1731708174.686
209,983.887,-0.488,-26.367,978.027,0.000,1731708174.690
210,970.215,-6.348,-19.043,974.609,0.000,1731708174.694
211,970.215,-31.250,-15.625,973.633,0.000,1731708174.697
212,970.215,-41.992,-15.137,847.656,0.000,1731708174.701
213,970.703,-14.160,-12.695,898.926,0.000,1731708174.704
214,907.227,-11.230,2.441,943.848,0.000,1731708174.708
215,-891.113,-24.414,5.859,-923.340,0.000,1731708174.711
216,188.965,-23.438,-8.301,65.430,0.000,1731708174.718
217,-1000.000,-25.879,-7.812,-1000.000,0.000,1731708174.721
218,-984.375,-20.508,-20.020,-971.191,0.000,1731708174.725
219,-973.633,-28.320,-20.996,-978.516,0.000,1731708174.728
220,-944.824,-44.434,-6.836,-948.242,0.000,1731708174.732
221,-1000.000,-38.574,-11.719,-1000.000,0.000,1731708174.736
222,-211.914,-3.906,-19.043,-158.691,0.000,1731708174.739
223,-956.543,-16.113,-24.902,-944.824,0.000,1731708174.743
224,952.637,-35.645,-19.531,946.289,0.000,1731708174.746
225,943.359,-15.137,-17.578,947.754,0.000,1731708174.750
226,976.562,-8.789,-21.484,976.074,0.000,1731708174.754
227,969.727,-8.301,-24.414,970.215,0.000,1731708174.757
228,970.215,-21.484,-23.438,970.703,0.000,1731708174.763
229,969.727,-24.902,-20.508,970.703,0.000,1731708174.767
230,969.727,-7.812,-18.066,970.703,0.000,1731708174.770
231,969.727,-3.906,-20.508,970.703,0.000,1731708174.774
232,970.215,-14.160,-27.344,970.703,0.000,1731708174.778
233,970.215,-4.883,-31.250,970.703,0.000,1731708174.781
234,969.727,-10.742,-21.484,970.703,0.000,1731708174.785
235,969.727,-38.574,-18.555,970.703,0.000,1731708174.788
236,970.215,-35.645,-25.391,970.703,0.000,1731708174.792
237,969.727,-25.879,-24.414,970.703,0.000,1731708174.796
238,969.727,-20.020,-20.020,970.703,0.000,1731708174.799
239,969.727,-15.137,-16.602,970.215,0.000,1731708174.803
240,969.727,-11.230,-20.996,970.703,0.000,1731708174.809
241,969.727,-13.672,-35.156,969.238,0.000,1731708174.812
242,969.727,-6.836,-37.598,968.262,0.000,1731708174.816
243,970.215,-7.324,-20.996,970.703,0.000,1731708174.820
244,969.727,-20.020,-12.207,970.703,0.000,1731708174.823
245,969.727,-14.648,-18.555,970.703,0.000,1731708174.827
246,969.727,-22.949,-27.832,970.703,0.000,1731708174.830
247,982.422,-24.414,-31.738,980.469,0.000,1731708174.834
248,918.945,-10.742,-31.738,915.039,0.000,1731708174.838
249,-985.352,-20.020,-25.879,-956.543,0.000,1731708174.841
250,852.051,-31.250,-21.973,677.246,0.000,1731708174.845
251,-534.180,-42.969,-21.973,-680.176,0.000,1731708174.848
252,-1000.000,-40.527,-31.250,-1000.000,0.000,1731708174.854
253,-935.547,-28.809,-32.227,-944.336,0.000,1731708174.858
254,-947.266,-19.531,-35.645,-948.730,0.000,1731708174.861
255,-1000.000,-25.879,-42.969,-1000.000,0.000,1731708174.865
256,-230.469,-23.926,-30.762,-200.195,0.000,1731708174.869
257,-962.402,-25.391,-21.973,-953.613,0.000,1731708174.872
258,955.566,-40.527,-30.273,951.660,0.000,1731708174.876
259,941.895,-18.555,-43.457,944.824,0.000,1731708174.880
260,977.051,-19.043,-42.480,976.562,0.000,1731708174.883
261,969.727,-36.621,-36.133,970.703,0.000,1731708174.887
262,970.215,-34.668,-41.016,970.703,0.000,1731708174.890
263,969.727,-25.879,-39.551,970.703,0.000,1731708174.894
264,0.000,-31.250,-29.297,970.703,0.000,1731708174.901
265,0.000,-35.645,-24.414,970.703,0.000,1731708174.905
266,0.000,-29.297,-27.344,970.215,0.000,1731708174.908
267,0.000,-28.809,-31.250,970.703,0.000,1731708174.912
268,0.000,-29.297,-33.203,981.934,0.000,1731708174.915
269,0.000,-24.414,-33.691,897.949,0.000,1731708174.919
270,0.000,-12.695,-41.504,-899.414,0.000,1731708174.923
271,0.000,-12.207,-45.410,437.500,0.000,1731708174.926
272,0.000,-37.109,-43.457,-961.426,0.000,1731708174.930
273,0.000,-58.105,-42.480,-1000.000,0.000,1731708174.934
274,0.000,-53.223,-38.086,-962.402,0.000,1731708174.937
275,0.000,-38.086,-37.598,-973.633,0.000,1731708174.941
276,-956.055,-35.645,-46.875,-1000.000,0.000,1731708174.948
277,-1000.000,-35.645,-54.199,-938.965,0.000,1731708174.951
278,-27.344,-19.043,-46.387,371.582,0.000,1731708174.955
279,-916.016,-12.695,-36.621,-916.016,0.000,1731708174.959
280,928.223,-23.926,-33.203,910.156,0.000,1731708174.962
281,956.543,-26.367,-29.785,975.098,0.000,1731708174.966
282,972.656,-20.996,-32.227,970.703,0.000,1731708174.970
283,969.727,-21.973,-35.645,970.703,0.000,1731708174.973
284,969.727,-33.203,-36.621,970.703,0.000,1731708174.977
285,969.727,-31.738,-34.668,970.703,0.000,1731708174.980
286,969.727,-27.832,-27.832,970.703,0.000,1731708174.984
287,969.727,-35.156,-21.973,970.703,0.000,1731708174.988
288,970.215,-23.438,-24.414,970.703,0.000,1731708174.994
289,984.375,-13.184,-35.156,983.887,0.000,1731708174.998
290,899.414,-16.113,-47.363,911.133,0.000,1731708175.001
291,-919.922,-32.715,-43.457,-958.008,0.000,1731708175.005
292,577.637,-48.340,-30.762,746.094,0.000,1731708175.009
293,-854.004,-44.922,-37.109,-663.574,0.000,1731708175.012
294,-1000.000,-38.086,-42.480,-1000.000,0.000,1731708175.016
295,-943.848,-35.156,-37.598,-937.988,0.000,1731708175.020
296,-1000.000,-37.598,-40.527,-1000.000,0.000,1731708175.023
297,-936.035,-40.527,-39.062,-941.406,0.000,1731708175.027
298,-1000.000,-35.156,-24.902,-1000.000,0.000,1731708175.031
299,-248.535,-42.969,-29.297,-179.199,0.000,1731708175.034
300,-968.750,-41.992,-29.297,-949.219,0.000,1731708175.041
301,958.496,-18.555,-26.367,948.730,0.000,1731708175.044
302,940.430,-8.789,-30.273,946.289,0.000,1731708175.048
303,977.539,-25.391,-28.809,976.562,0.000,1731708175.051
304,969.727,-38.574,-30.273,970.703,0.000,1731708175.055
305,969.727,-27.832,-22.949,970.703,0.000,1731708175.059
306,970.215,-6.348,-18.066,972.168,0.000,1731708175.062
307,970.703,0.488,-16.113,963.867,0.000,1731708175.066
308,907.227,-29.297,-18.555,921.387,0.000,1731708175.070
309,-891.602,-33.203,-27.344,-916.016,0.000,1731708175.073
310,188.965,-36.133,-19.043,78.125,0.000,1731708175.077
311,-1000.000,-40.039,1.465,-1000.000,0.000,1731708175.081
312,-984.375,-18.555,2.441,-973.633,0.000,1731708175.087
313,-974.121,-7.812,11.719,-979.004,0.000,1731708175.090
314,-944.336,-23.438,15.625,-945.801,0.000,1731708175.094
315,-1000.000,-41.016,36.133,-1000.000,0.000,1731708175.098
316,-219.238,-13.672,53.711,-185.059,0.000,1731708175.101
317,-958.496,59.082,54.199,-950.195,0.000,1731708175.105
318,953.613,70.801,85.449,949.707,0.000,1731708175.109
319,942.871,15.137,79.590,945.801,0.000,1731708175.112
320,976.562,-10.742,47.852,976.562,0.000,1731708175.116
321,970.215,-8.301,38.086,970.703,0.000,1731708175.120
322,969.727,6.348,46.875,970.215,0.000,1731708175.123
323,970.215,36.621,64.453,971.191,0.000,1731708175.127
324,976.074,73.242,100.098,970.215,0.000,1731708175.133
325,900.879,83.984,92.773,910.156,0.000,1731708175.137
326,-891.113,64.453,72.754,-895.020,0.000,1731708175.140
327,299.805,40.039,74.219,174.316,0.000,1731708175.144
328,-1000.000,23.438,68.848,-1000.000,0.000,1731708175.148
329,-1000.000,34.180,71.777,-982.910,0.000,1731708175.151
330,-979.492,45.898,73.730,-982.910,0.000,1731708175.155
331,-938.965,24.414,80.566,-936.523,0.000,1731708175.159
332,-1000.000,17.090,75.684,-1000.000,0.000,1731708175.162
333,-633.301,23.438,53.711,-407.715,0.000,1731708175.166
334,813.477,37.109,35.156,959.961,0.000,1731708175.170
335,-968.262,45.410,42.969,987.793,0.000,1731708175.173
336,911.621,40.527,61.523,933.594,0.000,1731708175.179
337,984.863,27.344,47.852,958.008,0.000,1731708175.183
338,909.180,-0.488,13.184,956.543,0.000,1731708175.187
339,-893.066,-3.418,2.441,-999.023,0.000,1731708175.190
340,166.992,2.441,24.414,-172.852,0.000,1731708175.194
341,-1000.000,-10.254,57.129,-1000.000,0.000,1731708175.198
342,-980.957,-20.508,70.312,-953.613,0.000,1731708175.201
343,-990.234,-17.090,62.012,-1000.000,0.000,1731708175.205
344,-936.035,3.906,44.434,-932.129,0.000,1731708175.209
345,-1000.000,-2.930,45.898,-1000.000,0.000,1731708175.212
346,-652.344,-11.719,49.805,-404.297,0.000,1731708175.216
347,795.410,1.465,42.480,960.449,0.000,1731708175.220
348,-964.355,6.348,37.109,987.305,0.000,1731708175.225
349,925.293,1.465,33.203,939.453,0.000,1731708175.229
350,917.480,-8.789,28.809,911.621,0.000,1731708175.233
351,-932.617,-9.766,20.508,-905.273,0.000,1731708175.236
352,657.227,-3.418,0.977,455.078,0.000,1731708175.240
353,-787.598,-37.109,-6.348,-937.012,0.000,1731708175.244
354,-1000.000,-70.801,1.953,-1000.000,0.000,1731708175.248
355,-938.965,-40.039,9.277,-952.637,0.000,1731708175.251
356,-1000.000,-19.531,-4.395,-1000.000,0.000,1731708175.255
357,-925.781,-13.184,-20.508,-933.594,0.000,1731708175.259
358,-1000.000,-11.230,-7.812,-1000.000,0.000,1731708175.262
359,-532.715,-5.371,4.395,-314.453,0.000,1731708175.266
360,0.000,15.137,1.465,-999.023,0.000,1731708175.273
361,0.000,4.395,13.184,971.680,0.000,1731708175.276
362,0.000,-4.883,-2.441,945.801,0.000,1731708175.280
363,0.000,-10.742,-13.184,910.645,0.000,1731708175.284
364,0.000,-19.043,1.465,-907.715,0.000,1731708175.287
365,0.000,-9.277,3.906,454.590,0.000,1731708175.291
366,0.000,-6.348,7.324,-929.688,0.000,1731708175.295
367,0.000,-19.531,6.348,-1000.000,0.000,1731708175.298
368,0.000,-24.902,10.742,-957.031,0.000,1731708175.302
369,0.000,-23.926,4.883,-995.605,0.000,1731708175.306
370,0.000,-14.648,-2.930,-971.191,0.000,1731708175.310
371,0.000,-4.883,18.555,-1000.000,0.000,1731708175.313
372,-199.219,2.930,40.039,47.852,0.000,1731708175.320
373,-953.125,8.789,25.391,-923.828,0.000,1731708175.323
374,950.684,-9.766,-22.461,928.223,0.000,1731708175.327
375,959.473,-13.672,-35.645,968.750,0.000,1731708175.331
376,910.645,-13.184,-8.301,903.320,0.000,1731708175.334
377,-941.406,-21.484,-1.465,-899.414,0.000,1731708175.338
378,692.383,-23.438,2.441,388.184,0.000,1731708175.342
379,-746.094,-29.785,6.836,-978.516,0.000,1731708175.346
380,-1000.000,-25.391,-6.836,-1000.000,0.000,1731708175.349
381,-944.336,-12.695,-5.859,-968.750,0.000,1731708175.353
382,-987.793,-13.672,3.418,-957.520,0.000,1731708175.357
383,-986.328,-20.996,2.441,-1000.000,0.000,1731708175.360
384,0.000,-16.113,1.465,-766.602,0.000,1731708175.367
385,0.000,-7.324,4.883,602.539,0.000,1731708175.370
386,0.000,-1.953,-1.465,-943.359,0.000,1731708175.374
387,0.000,-7.324,-10.742,911.621,0.000,1731708175.378
388,0.000,-10.254,-6.836,981.934,0.000,1731708175.381
389,0.000,-5.859,-4.883,948.730,0.000,1731708175.385
390,0.000,-1.465,-15.137,-967.773,0.000,1731708175.389
391,0.000,-14.648,-14.160,722.168,0.000,1731708175.393
392,0.000,-27.344,-6.836,576.172,0.000,1731708175.396
393,0.000,-29.297,-1.465,941.406,0.000,1731708175.400
394,0.000,-24.902,-2.930,-903.809,0.000,1731708175.404
395,0.000,-30.762,-15.625,29.297,0.000,1731708175.407
396,-1000.000,-44.922,-11.719,-1000.000,0.000,1731708175.413
397,-971.680,-44.434,-3.906,-966.309,0.000,1731708175.417
398,-980.469,-35.156,1.953,-988.770,0.000,1731708175.421
399,-1000.000,-25.391,8.789,-982.422,0.000,1731708175.425
400,-938.965,-21.973,-9.766,-980.957,0.000,1731708175.428
401,-1000.000,-20.508,-15.137,-1000.000,0.000,1731708175.432
402,-204.590,-0.977,-8.301,113.281,0.000,1731708175.436
403,-955.078,1.953,-27.832,-921.387,0.000,1731708175.439
404,951.660,-18.066,-37.109,924.316,0.000,1731708175.443
405,958.984,-20.020,-1.953,969.238,0.000,1731708175.447
406,904.785,-23.926,9.277,905.273,0.000,1731708175.451
407,-918.945,-29.785,-16.602,-896.484,0.000,1731708175.454
408,590.820,-30.273,-32.227,319.336,0.000,1731708175.460
409,-854.492,-25.391,-32.227,-1000.000,0.000,1731708175.464
410,-1000.000,-29.297,-21.973,-1000.000,0.000,1731708175.468
411,-947.754,-43.457,-18.066,-964.355,0.000,1731708175.471
412,-947.754,-35.156,-24.902,-946.777,0.000,1731708175.475
413,-1000.000,-23.926,-20.020,-1000.000,0.000,1731708175.479
414,-314.941,1.465,-15.625,-241.211,0.000,1731708175.482
415,-993.164,-2.441,-20.508,-966.309,0.000,1731708175.486
416,969.238,-24.902,-20.020,958.008,0.000,1731708175.490
417,935.059,-10.742,-22.461,943.359,0.000,1731708175.494
418,979.980,-11.719,-23.438,970.215,0.000,1731708175.497
419,907.227,-25.391,-18.555,922.363,0.000,1731708175.501
420,-891.113,-29.785,-18.555,-917.969,0.000,1731708175.507
421,188.965,-28.809,-31.738,67.383,0.000,1731708175.511
422,-1000.000,-30.762,-27.344,-1000.000,0.000,1731708175.514
423,-984.375,-28.320,-6.836,-972.168,0.000,1731708175.518
424,-974.121,-39.062,-25.391,-979.004,0.000,1731708175.522
425,-944.336,-38.574,-37.598,-946.777,0.000,1731708175.525
426,-1000.000,-30.762,-26.367,-1000.000,0.000,1731708175.529
427,-219.238,-24.902,-27.344,-176.270,0.000,1731708175.533
428,-958.496,-14.648,-22.949,-948.730,0.000,1731708175.537
429,953.613,-15.625,-24.902,948.730,0.000,1731708175.540
430,942.871,-11.230,-29.785,946.289,0.000,1731708175.544
431,976.562,-4.883,-22.461,976.562,0.000,1731708175.548
432,969.727,-7.812,-25.879,970.703,0.000,1731708175.553
433,969.727,-11.719,-36.621,970.703,0.000,1731708175.557
434,970.215,-8.301,-29.297,972.656,0.000,1731708175.561
435,970.703,-16.113,-21.484,961.426,0.000,1731708175.564
436,907.227,-28.809,-18.555,925.293,0.000,1731708175.568
437,-891.113,-16.602,-9.766,-922.363,0.000,1731708175.572
438,188.965,-13.672,-19.531,46.875,0.000,1731708175.576
439,-1000.000,-14.160,-34.668,-1000.000,0.000,1731708175.579
440,-984.375,-14.160,-33.203,-970.215,0.000,1731708175.583
441,-977.051,-42.969,-28.320,-981.934,0.000,1731708175.587
442,-940.918,-52.246,-38.086,-943.848,0.000,1731708175.591
443,-1000.000,-42.480,-36.133,-1000.000,0.000,1731708175.594
444,0.000,-19.531,-8.301,-199.707,0.000,1731708175.600
445,0.000,3.418,-11.719,-953.125,0.000,1731708175.603
446,0.000,0.488,-41.992,951.660,0.000,1731708175.607
447,0.000,15.625,-37.109,944.824,0.000,1731708175.611
448,0.000,14.160,-11.719,977.051,0.000,1731708175.615
449,0.000,-3.418,-1.953,970.703,0.000,1731708175.618
450,0.000,-2.930,-10.254,970.703,0.000,1731708175.622
451,0.000,-19.531,-34.180,971.680,0.000,1731708175.626
452,0.000,-19.043,-42.480,966.797,0.000,1731708175.630
453,0.000,-23.926,-20.996,914.551,0.000,1731708175.633
454,0.000,-38.086,-5.859,-899.414,0.000,1731708175.637
455,0.000,-35.156,-11.719,122.559,0.000,1731708175.641
456,-276.855,-24.902,-13.184,-1000.000,0.000,1731708175.644
457,-978.516,-21.973,-0.977,-976.074,0.000,1731708175.648
458,962.891,-57.617,-28.320,-980.957,0.000,1731708175.652
459,937.988,-52.734,-48.340,-940.430,0.000,1731708175.656
460,978.516,-33.203,-41.504,-1000.000,0.000,1731708175.659
461,970.215,-30.273,-27.832,-267.090,0.000,1731708175.663
462,969.727,-12.695,-19.531,-976.074,0.000,1731708175.667
463,970.215,-24.414,-9.277,962.402,0.000,1731708175.671
464,970.703,-30.762,-5.371,939.941,0.000,1731708175.674
465,907.227,-28.809,-8.789,974.121,0.000,1731708175.678
466,-891.113,-23.438,1.465,976.074,0.000,1731708175.682
467,188.965,-9.766,-3.418,969.727,0.000,1731708175.685
468,970.703,-14.648,0.977,867.188,0.000,1731708175.692
469,969.238,-16.113,9.766,916.992,0.000,1731708175.695
470,909.668,-25.391,10.254,939.453,0.000,1731708175.699
471,-893.555,-38.574,2.930,-920.898,0.000,1731708175.703
472,160.645,-43.457,-20.508,62.012,0.000,1731708175.707
473,-1000.000,-41.016,-16.602,-1000.000,0.000,1731708175.710
474,-979.980,-6.348,15.137,-969.727,0.000,1731708175.714
475,-990.234,-18.066,6.348,-989.258,0.000,1731708175.718
476,-934.082,-45.410,-20.508,-935.547,0.000,1731708175.722
477,-1000.000,-56.641,-32.715,-1000.000,0.000,1731708175.725
478,-603.516,-45.898,-41.992,-356.445,0.000,1731708175.729
479,841.797,-14.160,-31.250,985.840,0.000,1731708175.733
480,-974.609,-1.465,-27.344,978.027,0.000,1731708175.739
481,912.598,-1.465,-34.668,932.129,0.000,1731708175.742
482,985.352,-9.277,-27.344,980.957,0.000,1731708175.746
483,969.727,-14.160,-21.484,970.703,0.000,1731708175.750
484,970.215,-12.695,-41.016,970.703,0.000,1731708175.754
485,979.004,-13.672,-63.965,978.027,0.000,1731708175.757
486,934.570,-14.160,-71.289,939.453,0.000,1731708175.761
487,973.633,-8.301,-47.852,965.820,0.000,1731708175.765
488,982.910,-47.852,-55.176,998.047,0.000,1731708175.769
489,-323.242,-79.102,-85.938,-267.578,0.000,1731708175.772
490,-1000.000,-52.734,-71.777,-1000.000,0.000,1731708175.776
491,-936.035,-22.461,-36.133,-940.430,0.000,1731708175.780
492,-1000.000,-28.320,-33.203,-1000.000,0.000,1731708175.786
493,-929.688,-38.574,-62.012,-935.547,0.000,1731708175.789
494,-1000.000,-42.969,-83.008,-1000.000,0.000,1731708175.793
495,-370.605,-37.109,-84.961,-265.137,0.000,1731708175.797
496,984.375,-13.184,-63.477,-974.609,0.000,1731708175.801
497,979.004,-12.695,-56.152,961.914,0.000,1731708175.804
498,930.664,-12.695,-55.176,939.453,0.000,1731708175.808
499,991.211,-26.367,-47.363,984.863,0.000,1731708175.812
500,928.711,-36.621,-62.988,913.574,0.000,1731708175.816
501,989.746,-27.344,-76.172,-935.547,0.000,1731708175.819
502,931.641,-36.133,-64.453,500.977,0.000,1731708175.823
503,-406.250,-45.898,-51.758,-818.848,0.000,1731708175.827
504,-1000.000,-45.410,-51.758,-1000.000,0.000,1731708175.833
505,-927.734,-36.621,-60.547,-936.523,0.000,1731708175.836
506,-956.543,-26.855,-41.992,-979.004,0.000,1731708175.840
507,-1000.000,-8.789,-12.207,-1000.000,0.000,1731708175.844
508,-85.938,16.602,-25.879,64.453,0.000,1731708175.848
509,-926.270,21.973,-71.289,-913.086,0.000,1731708175.851
510,935.547,-11.230,-83.496,923.340,0.000,1731708175.855
511,952.637,-61.035,-66.406,961.914,0.000,1731708175.859
512,973.633,-59.082,-38.086,972.656,0.000,1731708175.863
513,969.727,-31.738,-14.648,970.703,0.000,1731708175.866
514,969.727,-20.996,-5.859,970.703,0.000,1731708175.870
515,975.098,8.789,8.789,977.051,0.000,1731708175.874
516,947.754,-3.906,-15.625,942.383,0.000,1731708175.879
517,945.312,-38.574,-26.855,961.426,0.000,1731708175.883
518,-948.242,-43.457,-20.508,-998.535,0.000,1731708175.887
519,-151.367,-42.969,-26.855,-229.492,0.000,1731708175.891
520,-1000.000,-34.180,-13.184,-1000.000,0.000,1731708175.894
521,-945.312,-9.277,-6.836,-945.312,0.000,1731708175.898
522,-1000.000,-26.367,-3.906,-1000.000,0.000,1731708175.902
523,-927.246,-56.152,1.953,-934.570,0.000,1731708175.906
524,-1000.000,-45.410,0.488,-1000.000,0.000,1731708175.909
525,-508.301,-25.879,-8.301,-297.852,0.000,1731708175.913
526,914.551,-3.418,-10.742,-988.281,0.000,1731708175.917
527,-994.629,2.441,-0.977,967.773,0.000,1731708175.921
528,919.434,-4.395,15.625,937.012,0.000,1731708175.926
529,984.375,-19.531,22.949,979.492,0.000,1731708175.930
530,969.727,-27.344,6.836,970.703,0.000,1731708175.934
531,970.215,-6.836,4.395,970.703,0.000,1731708175.937
532,973.145,-3.906,14.648,975.586,0.000,1731708175.941
533,954.102,-8.301,8.789,949.707,0.000,1731708175.945
534,933.105,-33.203,-11.719,946.289,0.000,1731708175.949
535,-923.828,-51.758,-9.277,-959.961,0.000,1731708175.952
536,-67.383,-47.363,12.207,-131.836,0.000,1731708175.956
537,-1000.000,-57.129,3.418,-1000.000,0.000,1731708175.960
538,-951.660,-24.902,-5.371,-950.684,0.000,1731708175.964
539,-1000.000,-13.672,9.277,-1000.000,0.000,1731708175.967
540,-932.617,-27.832,18.066,-931.152,0.000,1731708175.973
541,-1000.000,-27.832,6.836,-1000.000,0.000,1731708175.976
542,-666.992,-24.902,-7.812,-421.875,0.000,1731708175.980
543,780.762,-11.719,2.441,952.637,0.000,1731708175.984
544,-961.426,-8.789,7.324,990.723,0.000,1731708175.988
545,909.668,-21.484,2.930,929.688,0.000,1731708175.991
546,986.328,-21.484,7.812,970.215,0.000,1731708175.995
547,907.227,-7.812,13.184,932.129,0.000,1731708175.999
548,-891.602,-11.230,-5.859,-937.500,0.000,1731708176.003
549,188.965,-22.949,-23.926,-2.441,0.000,1731708176.006
550,-1000.000,-28.809,-7.812,-1000.000,0.000,1731708176.010
551,-984.375,-26.367,-4.395,-966.309,0.000,1731708176.014
552,0.000,-20.996,-0.488,-981.934,0.000,1731708176.020
553,0.000,-15.625,11.230,-947.266,0.000,1731708176.024
554,0.000,-27.344,0.977,-1000.000,0.000,1731708176.027
555,0.000,4.883,5.859,-161.133,0.000,1731708176.031
556,0.000,11.719,8.301,-945.312,0.000,1731708176.035
557,0.000,-20.020,-12.695,946.777,0.000,1731708176.039
558,0.000,-24.414,-28.320,951.172,0.000,1731708176.043
559,0.000,-27.344,-25.879,961.426,0.000,1731708176.046
560,0.000,-22.949,-12.207,939.941,0.000,1731708176.050
561,0.000,-39.551,-10.742,-967.773,0.000,1731708176.054
562,0.000,-40.527,-5.859,-40.039,0.000,1731708176.058
563,0.000,-23.438,17.578,-1000.000,0.000,1731708176.061
564,-984.375,-33.691,0.000,-968.262,0.000,1731708176.067
565,-974.121,-52.734,0.000,-979.492,0.000,1731708176.071
566,-944.336,-38.086,0.000,-953.125,0.000,1731708176.075
567,-1000.000,-25.391,0.000,-1000.000,0.000,1731708176.078
568,-219.727,-18.555,0.000,-116.211,0.000,1731708176.082
569,-958.984,-5.859,0.000,-940.430,0.000,1731708176.086
570,953.613,-7.324,0.000,942.383,0.000,1731708176.090
571,952.637,5.371,0.000,961.914,0.000,1731708176.094
572,937.988,-16.602,0.000,915.039,0.000,1731708176.097
573,982.422,-49.316,0.000,-943.359,0.000,1731708176.101
574,957.031,-26.855,0.000,639.648,0.000,1731708176.105
575,-369.629,-33.691,0.000,-745.117,0.000,1731708176.109
576,0.000,-44.434,-8.301,-1000.000,0.000,1731708176.114
577,0.000,-29.297,-1.953,-956.543,0.000,1731708176.118
578,0.000,-15.625,-1.465,-958.984,0.000,1731708176.122
579,0.000,-12.207,1.953,-1000.000,0.000,1731708176.126
580,0.000,-26.367,-9.766,-818.848,0.000,1731708176.129
581,0.000,-3.418,9.277,558.105,0.000,1731708176.133
582,0.000,13.184,32.227,-933.105,0.000,1731708176.137
583,0.000,-1.953,-4.395,908.691,0.000,1731708176.141
584,0.000,-50.781,-28.809,979.980,0.000,1731708176.144
585,0.000,-55.176,-24.902,970.703,0.000,1731708176.148
586,0.000,-22.461,-14.160,973.633,0.000,1731708176.152
587,0.000,-26.367,-2.441,944.336,0.000,1731708176.156
588,-1000.000,-18.555,1.953,956.055,0.000,1731708176.159
589,-943.359,-17.578,15.137,908.691,0.000,1731708176.163
590,-973.633,-14.160,21.484,-892.090,0.000,1731708176.167
591,-997.559,-12.207,10.742,260.742,0.000,1731708176.171
592,-1000.000,-33.691,-1.465,-1000.000,0.000,1731708176.174
593,256.836,-36.133,-5.859,-996.094,0.000,1731708176.178
594,-896.973,-22.949,12.207,-971.680,0.000,1731708176.182
595,906.250,-51.758,5.859,-992.188,0.000,1731708176.186
596,973.145,-69.336,-3.906,-970.703,0.000,1731708176.189
597,969.727,-36.133,9.277,-1000.000,0.000,1731708176.193
598,969.727,-17.090,6.348,40.527,0.000,1731708176.197
599,969.727,0.000,24.902,-925.781,0.000,1731708176.201
600,953.613,-4.883,23.438,929.688,0.000,1731708176.206
601,946.777,-12.207,-13.672,968.262,0.000,1731708176.210
602,958.496,-4.883,-7.324,924.316,0.000,1731708176.214
603,937.012,-10.742,8.301,-973.633,0.000,1731708176.218
604,-930.176,-27.832,2.930,738.281,0.000,1731708176.221
605,-97.656,-29.785,10.254,-587.402,0.000,1731708176.225
606,-1000.000,-14.160,18.555,-1000.000,0.000,1731708176.229
607,-956.543,-34.180,11.719,-958.008,0.000,1731708176.233
608,-962.402,-47.363,8.301,-950.195,0.000,1731708176.236
609,-996.094,-31.250,-0.488,-1000.000,0.000,1731708176.240
610,-1000.000,-29.297,4.395,-756.348,0.000,1731708176.244
611,239.746,-5.859,19.531,629.883,0.000,1731708176.248
612,0.000,-1.953,16.602,-944.336,0.000,1731708176.253
613,0.000,-7.324,16.113,910.645,0.000,1731708176.257
614,0.000,-12.207,17.578,984.863,0.000,1731708176.261
615,0.000,-11.719,40.527,905.273,0.000,1731708176.264
616,0.000,-6.836,39.062,-892.578,0.000,1731708176.268
617,0.000,-23.438,12.695,243.652,0.000,1731708176.272
618,0.000,-56.152,10.254,-1000.000,0.000,1731708176.276
619,0.000,-84.473,-19.043,-994.141,0.000,1731708176.280
620,0.000,-56.641,-15.625,-979.004,0.000,1731708176.283
621,0.000,-40.527,-6.836,-938.477,0.000,1731708176.287
622,0.000,-34.668,-8.789,-1000.000,0.000,1731708176.291
623,0.000,-24.414,19.043,-449.707,0.000,1731708176.295
624,733.398,-9.277,17.090,931.641,0.000,1731708176.300
625,-953.125,-4.395,-6.836,996.094,0.000,1731708176.304
626,907.715,-2.441,1.465,925.293,0.000,1731708176.307
627,984.863,-20.996,-1.953,982.910,0.000,1731708176.311
628,969.727,-39.551,-9.277,970.703,0.000,1731708176.315
629,970.215,-33.691,-0.977,970.703,0.000,1731708176.319
630,972.656,-16.113,1.465,974.609,0.000,1731708176.323
631,957.031,-3.418,15.137,953.613,0.000,1731708176.326
632,928.223,-20.996,13.672,937.988,0.000,1731708176.330
633,-916.016,-20.996,4.395,-939.941,0.000,1731708176.334
634,-24.414,-44.434,-5.859,-77.148,0.000,1731708176.338
635,-1000.000,-58.105,-11.719,-1000.000,0.000,1731708176.341
636,-956.543,-47.363,-0.488,-954.590,0.000,1731708176.347
637,-991.211,-50.781,-7.324,-1000.000,0.000,1731708176.350
638,-989.258,-38.574,11.230,-959.473,0.000,1731708176.354
639,-959.473,-17.090,33.203,-1000.000,0.000,1731708176.358
640,-1000.000,-0.488,21.484,-895.996,0.000,1731708176.362
641,2.441,-1.465,7.812,423.340,0.000,1731708176.365
642,-911.133,-26.855,-17.090,-923.340,0.000,1731708176.369
643,925.293,-48.828,-34.180,912.109,0.000,1731708176.373
644,962.402,-51.270,-26.855,972.656,0.000,1731708176.377
645,905.762,-42.969,2.930,914.551,0.000,1731708176.381
646,-890.137,-17.578,21.973,-899.902,0.000,1731708176.384
647,240.723,-8.789,18.066,126.953,0.000,1731708176.388
648,0.000,-29.297,-0.488,-1000.000,0.000,1731708176.394
649,0.000,-31.250,2.930,-977.051,0.000,1731708176.398
650,0.000,-27.344,11.719,-977.051,0.000,1731708176.401
651,0.000,-28.809,4.883,-944.824,0.000,1731708176.405
652,0.000,-32.227,1.953,-1000.000,0.000,1731708176.409
653,0.000,-24.414,-2.441,-200.684,0.000,1731708176.413
654,0.000,-6.836,5.371,-953.613,0.000,1731708176.417
655,0.000,-11.230,11.719,951.660,0.000,1731708176.420
656,0.000,-20.508,13.184,944.824,0.000,1731708176.424
657,0.000,-14.160,11.719,977.051,0.000,1731708176.428
658,0.000,-20.020,-9.277,970.703,0.000,1731708176.432
659,0.000,-17.578,-7.324,970.703,0.000,1731708176.436
660,980.469,11.719,20.508,980.957,0.000,1731708176.441
661,929.199,-6.348,-17.090,927.246,0.000,1731708176.445
662,987.793,-32.715,-40.039,997.070,0.000,1731708176.449
663,940.430,-34.180,-23.438,905.273,0.000,1731708176.452
664,-395.996,-53.711,-49.805,-437.988,0.000,1731708176.456
665,-1000.000,-48.340,-36.621,-1000.000,0.000,1731708176.460
666,-935.059,-20.996,4.395,-936.035,0.000,1731708176.464
667,-1000.000,-1.953,22.461,-1000.000,0.000,1731708176.468
668,-940.430,-26.367,-10.742,-930.664,0.000,1731708176.471
669,-1000.000,-56.152,-24.902,-1000.000,0.000,1731708176.475
670,-792.969,-38.574,8.789,-503.418,0.000,1731708176.479
671,632.324,-21.973,-10.254,892.090,0.000,1731708176.483
672,-936.035,-15.137,-20.020,-992.676,0.000,1731708176.488
673,904.785,-12.207,0.977,923.828,0.000,1731708176.492
674,984.375,-14.160,4.883,975.586,0.000,1731708176.496
675,907.227,-12.207,14.648,922.852,0.000,1731708176.500
676,-891.113,-13.672,17.578,-916.992,0.000,1731708176.503
677,188.965,-21.973,9.277,62.500,0.000,1731708176.507
678,-1000.000,-24.902,14.160,-1000.000,0.000,1731708176.511
679,-984.375,-37.109,10.742,-971.191,0.000,1731708176.515
680,-987.305,-53.711,3.906,-987.305,0.000,1731708176.519
681,-932.617,-45.898,0.488,-937.500,0.000,1731708176.522
682,-1000.000,-35.645,5.859,-1000.000,0.000,1731708176.526
683,-530.762,-31.250,18.555,-326.172,0.000,1731708176.530
684,901.367,3.906,38.574,998.535,0.000,1731708176.535
685,-989.746,12.207,37.598,972.656,0.000,1731708176.539
686,917.480,-11.230,1.953,934.570,0.000,1731708176.543
687,984.863,-31.250,-14.648,980.469,0.000,1731708176.547
688,969.727,-45.898,-10.254,970.703,0.000,1731708176.550
689,970.215,-31.738,0.488,970.703,0.000,1731708176.554
690,982.910,-21.484,13.184,983.887,0.000,1731708176.558
691,917.480,-32.715,30.762,913.574,0.000,1731708176.562
692,-981.934,-36.621,45.898,-962.402,0.000,1731708176.566
693,842.285,-10.742,39.551,757.812,0.000,1731708176.569
694,-549.805,-4.883,20.020,-641.602,0.000,1731708176.573
695,-1000.000,-28.809,14.648,-1000.000,0.000,1731708176.577
696,-934.082,-44.922,0.000,-937.988,0.000,1731708176.582
697,-1000.000,-35.156,0.000,-1000.000,0.000,1731708176.586
698,-986.816,-20.996,0.000,-952.637,0.000,1731708176.590
699,-959.473,-16.602,0.000,-1000.000,0.000,1731708176.594
700,-1000.000,-20.996,0.000,-819.824,0.000,1731708176.597
701,2.930,-10.742,0.000,513.184,0.000,1731708176.601
702,-911.133,9.766,0.000,-936.523,0.000,1731708176.605
703,926.270,-3.418,0.000,920.410,0.000,1731708176.609
704,952.637,-21.484,0.000,943.848,0.000,1731708176.613
705,919.434,-31.250,0.000,979.004,0.000,1731708176.616
706,-902.344,-20.020,0.000,935.547,0.000,1731708176.620
707,75.195,-24.902,0.000,-315.918,0.000,1731708176.624
708,-1000.000,-43.457,16.602,-1000.000,0.000,1731708176.629
709,-968.750,-27.832,39.062,-947.266,0.000,1731708176.633
710,-982.422,-24.902,39.062,-996.582,0.000,1731708176.637
711,-941.895,-19.043,22.949,-945.312,0.000,1731708176.641
712,-1000.000,-18.066,14.160,-1000.000,0.000,1731708176.644
713,-219.238,-12.207,1.953,-152.344,0.000,1731708176.648
714,-958.496,0.000,9.277,-944.336,0.000,1731708176.652
715,953.613,-20.020,20.020,945.801,0.000,1731708176.656
716,942.871,-19.531,43.945,948.730,0.000,1731708176.660
717,976.562,-34.180,27.832,973.145,0.000,1731708176.663
718,970.215,-45.898,-2.441,977.051,0.000,1731708176.667
719,970.215,-21.484,-1.465,954.590,0.000,1731708176.671
720,984.863,-14.160,15.625,942.871,0.000,1731708176.676
721,904.785,-16.602,44.922,903.320,0.000,1731708176.680
722,-941.406,-4.883,31.250,-929.688,0.000,1731708176.684
723,690.430,-25.391,0.977,621.582,0.000,1731708176.687
724,-745.605,-59.082,8.301,-792.969,0.000,1731708176.691
725,-1000.000,-53.223,14.648,-1000.000,0.000,1731708176.695
726,-937.988,-52.734,18.555,-942.871,0.000,1731708176.699
727,-1000.000,-47.852,21.973,-1000.000,0.000,1731708176.703
728,-926.270,-27.344,20.996,-934.082,0.000,1731708176.706
729,-1000.000,-36.621,20.996,-1000.000,0.000,1731708176.710
730,-511.230,-20.020,28.809,-291.504,0.000,1731708176.714
731,912.598,-8.301,30.762,-985.840,0.000,1731708176.718
732,0.000,-7.324,22.949,966.309,0.000,1731708176.723
733,0.000,-4.395,21.484,937.500,0.000,1731708176.727
734,0.000,-11.230,32.715,979.492,0.000,1731708176.730
735,0.000,-18.555,41.504,970.703,0.000,1731708176.734
736,0.000,-23.926,26.855,970.703,0.000,1731708176.738
737,0.000,-20.508,46.387,984.375,0.000,1731708176.742
738,0.000,-25.391,50.781,899.902,0.000,1731708176.746
739,0.000,-20.508,38.574,-916.992,0.000,1731708176.749
740,0.000,-17.090,42.480,556.152,0.000,1731708176.753
741,0.000,-27.344,12.695,-869.141,0.000,1731708176.757
742,0.000,-31.250,3.906,-1000.000,0.000,1731708176.761
743,0.000,-32.715,36.621,-945.312,0.000,1731708176.765
744,-993.652,-34.668,31.738,-1000.000,0.000,1731708176.768
745,918.945,-21.484,29.297,-931.152,0.000,1731708176.772
746,984.375,-14.160,43.457,-1000.000,0.000,1731708176.776
747,970.215,-18.555,31.738,-361.816,0.000,1731708176.780
748,970.215,-4.883,22.949,981.934,0.000,1731708176.783
749,984.863,-0.488,17.578,979.492,0.000,1731708176.787
750,897.461,-12.207,14.648,943.848,0.000,1731708176.791
751,-915.527,-19.531,13.184,921.387,0.000,1731708176.795
752,571.289,-11.719,10.742,-949.707,0.000,1731708176.799
753,-871.094,-8.789,2.930,679.199,0.000,1731708176.802
754,-1000.000,-30.273,21.973,-710.449,0.000,1731708176.806
755,-943.359,-37.598,35.156,-1000.000,0.000,1731708176.810
756,-934.570,-31.250,29.297,-942.871,0.000,1731708176.816
757,-1000.000,-33.691,29.785,-1000.000,0.000,1731708176.819
758,-931.641,-9.766,49.316,-941.895,0.000,1731708176.823
759,-1000.000,-16.113,37.109,-1000.000,0.000,1731708176.827
760,-328.613,-41.016,2.441,-176.758,0.000,1731708176.831
761,-999.023,-20.508,8.301,-949.707,0.000,1731708176.835
762,972.168,-7.812,8.301,948.730,0.000,1731708176.838
763,934.082,-22.461,10.742,949.219,0.000,1731708176.842
764,979.980,-38.574,24.902,963.867,0.000,1731708176.846
765,970.215,-32.715,37.598,999.512,0.000,1731708176.850
766,970.215,-20.996,27.832,888.672,0.000,1731708176.854
767,977.539,-24.902,5.859,793.945,0.000,1731708176.857
768,899.902,-26.855,9.277,896.973,0.000,1731708176.863
769,-891.602,-20.020,16.602,-883.789,0.000,1731708176.866
770,327.637,-32.227,20.020,338.379,0.000,1731708176.870
771,-1000.000,-58.594,-8.789,-1000.000,0.000,1731708176.874
772,-1000.000,-45.410,-12.695,-1000.000,0.000,1731708176.878
773,-961.914,-33.203,6.836,-960.449,0.000,1731708176.882
774,-1000.000,-34.668,-2.930,-1000.000,0.000,1731708176.885
775,-935.547,-31.250,0.977,-931.152,0.000,1731708176.889
776,-1000.000,-43.945,1.465,-1000.000,0.000,1731708176.893
777,-730.957,-37.598,-2.441,-386.719,0.000,1731708176.897
778,706.543,-17.578,0.488,968.262,0.000,1731708176.901
779,-948.730,-12.207,10.742,984.375,0.000,1731708176.904
780,918.945,-14.648,21.973,941.406,0.000,1731708176.910
781,936.035,-22.461,14.648,917.969,0.000,1731708176.914
782,-991.211,-15.137,-7.812,-932.129,0.000,1731708176.918
783,874.512,-30.762,-22.461,589.844,0.000,1731708176.922
784,-504.883,-57.617,-3.418,-802.734,0.000,1731708176.926
785,-1000.000,-56.641,1.465,-1000.000,0.000,1731708176.929
786,-934.082,-38.574,10.742,-950.684,0.000,1731708176.933
787,-1000.000,-11.719,37.598,-993.652,0.000,1731708176.937
788,-938.965,0.000,19.531,-974.609,0.000,1731708176.941
789,-1000.000,-25.879,-2.930,-1000.000,0.000,1731708176.945
790,-201.172,-46.875,-20.508,73.242,0.000,1731708176.948
791,-953.613,-43.457,-30.762,-922.363,0.000,1731708176.952
792,0.000,-36.621,0.000,926.270,0.000,1731708176.957
793,0.000,-38.086,0.000,971.680,0.000,1731708176.961
794,0.000,-46.387,0.000,904.297,0.000,1731708176.965
795,0.000,-36.133,0.000,-910.156,0.000,1731708176.969
796,0.000,-25.879,0.000,468.262,0.000,1731708176.973
797,0.000,-9.766,0.000,-916.992,0.000,1731708176.976
798,0.000,-10.742,0.000,-1000.000,0.000,1731708176.980
799,0.000,-43.457,0.000,-963.379,0.000,1731708176.984
800,0.000,-59.082,0.000,-960.449,0.000,1731708176.988
801,0.000,-58.105,0.000,-1000.000,0.000,1731708176.992
802,0.000,-48.828,0.000,-805.176,0.000,1731708176.995
803,0.000,-25.879,0.000,562.500,0.000,1731708176.999
804,-896.484,-15.137,0.000,-936.523,0.000,1731708177.004
805,910.645,-1.465,17.578,910.645,0.000,1731708177.008
806,983.398,-9.277,6.836,984.863,0.000,1731708177.012
807,897.461,-35.156,-15.625,904.785,0.000,1731708177.016
808,-912.109,-48.340,-25.879,-895.508,0.000,1731708177.019
809,549.805,-53.223,-18.555,282.715,0.000,1731708177.023
810,-889.648,-46.875,4.883,-1000.000,0.000,1731708177.027
811,-1000.000,-50.781,14.160,-1000.000,0.000,1731708177.031
812,-959.473,-44.922,-0.977,-976.562,0.000,1731708177.035
813,-956.055,-44.434,-2.930,-940.430,0.000,1731708177.038
814,-1000.000,-41.992,11.230,-1000.000,0.000,1731708177.042
815,-799.805,-38.086,-7.324,-506.348,0.000,1731708177.046
816,0.000,-21.484,-7.812,888.184,0.000,1731708177.051
817,0.000,-9.766,0.488,-992.188,0.000,1731708177.055
818,0.000,-27.832,-15.137,921.387,0.000,1731708177.059
819,0.000,-33.203,-14.648,983.887,0.000,1731708177.062
820,0.000,-27.832,-5.371,970.703,0.000,1731708177.066
821,0.000,-32.227,0.000,970.703,0.000,1731708177.070
822,0.000,-30.273,8.301,973.633,0.000,1731708177.074
823,0.000,-35.645,13.672,955.566,0.000,1731708177.078
824,0.000,-41.016,8.301,934.570,0.000,1731708177.081
825,0.000,-28.320,4.395,-934.082,0.000,1731708177.085
826,0.000,-28.320,-1.465,-44.434,0.000,1731708177.089
827,0.000,-43.457,-4.883,-1000.000,0.000,1731708177.093
828,-960.938,-44.434,5.859,-958.008,0.000,1731708177.098
829,-986.328,-45.410,11.719,-991.211,0.000,1731708177.102
830,-1000.000,-41.504,-9.766,-994.629,0.000,1731708177.105
831,-937.500,-28.809,-14.160,-954.102,0.000,1731708177.109
832,-1000.000,-33.691,0.488,-1000.000,0.000,1731708177.113
833,-219.238,-29.785,1.465,-81.543,0.000,1731708177.117
834,-958.496,-27.832,-9.277,-938.477,0.000,1731708177.121
835,953.613,-17.578,-3.906,940.430,0.000,1731708177.124
836,953.125,-6.836,1.465,953.613,0.000,1731708177.128
837,903.809,-26.855,4.883,912.598,0.000,1731708177.132
838,-894.531,-33.691,5.859,-894.043,0.000,1731708177.136
839,396.484,-32.227,0.977,210.449,0.000,1731708177.140
840,0.000,-37.598,0.000,-1000.000,0.000,1731708177.145
841,0.000,-33.203,0.000,-988.770,0.000,1731708177.149
842,0.000,-31.738,0.000,-977.539,0.000,1731708177.153
843,0.000,-38.574,0.000,-939.453,0.000,1731708177.156
844,0.000,-39.062,0.000,-1000.000,0.000,1731708177.160
845,0.000,-31.250,0.000,-339.355,0.000,1731708177.164
846,0.000,-20.508,0.000,993.652,0.000,1731708177.168
847,0.000,-16.602,0.000,975.098,0.000,1731708177.172
848,0.000,-20.020,0.000,937.988,0.000,1731708177.175
849,0.000,-30.762,0.000,962.402,0.000,1731708177.179
850,0.000,-30.273,0.000,942.871,0.000,1731708177.183
851,0.000,-27.344,0.000,-960.938,0.000,1731708177.187
852,175.293,-41.504,5.859,-84.473,0.000,1731708177.191
853,-1000.000,-51.270,-10.254,-1000.000,0.000,1731708177.194
854,-982.910,-39.062,-22.949,-962.402,0.000,1731708177.198
855,-970.703,-33.691,-13.672,-972.656,0.000,1731708177.202
856,-950.195,-43.945,-16.113,-972.168,0.000,1731708177.206
857,-1000.000,-43.457,-8.301,-1000.000,0.000,1731708177.210
858,-149.902,-17.578,-0.488,44.434,0.000,1731708177.214
859,-941.406,-3.906,-19.043,-918.457,0.000,1731708177.217
860,943.848,-33.203,-28.809,926.270,0.000,1731708177.221
861,956.055,-48.828,-26.367,971.680,0.000,1731708177.225
862,941.895,-30.273,-17.090,918.457,0.000,1731708177.229
863,968.750,-24.902,-6.836,-964.844,0.000,1731708177.233
864,996.582,-25.391,-20.996,742.676,0.000,1731708177.238
865,-295.410,-38.086,-24.414,-631.836,0.000,1731708177.242
866,-1000.000,-44.922,-20.508,-1000.000,0.000,1731708177.245
867,-937.012,-41.504,-20.508,-943.848,0.000,1731708177.249
868,-1000.000,-44.434,-32.227,-997.559,0.000,1731708177.253
869,-937.988,-36.133,-29.785,-962.891,0.000,1731708177.257
870,-1000.000,-26.855,-28.320,-1000.000,0.000,1731708177.261
871,-219.727,-12.207,-25.879,-16.113,0.000,1731708177.265
872,-958.984,-27.344,-20.508,-931.152,0.000,1731708177.268
873,953.613,-39.062,-21.484,934.082,0.000,1731708177.272
874,958.008,-23.438,-9.766,965.332,0.000,1731708177.276
875,909.180,-27.832,-9.277,904.297,0.000,1731708177.280
876,-934.570,-18.066,-26.855,-901.855,0.000,1731708177.285
877,663.086,-1.953,-29.785,410.645,0.000,1731708177.289
878,-778.320,-19.043,-31.738,-962.891,0.000,1731708177.292
879,-1000.000,-45.898,-33.691,-1000.000,0.000,1731708177.296
880,-951.660,-51.270,-29.785,-968.750,0.000,1731708177.300
881,-963.379,-41.504,-27.832,-947.266,0.000,1731708177.304
882,-1000.000,-23.438,-23.926,-1000.000,0.000,1731708177.308
883,-876.953,-35.645,-23.438,-642.090,0.000,1731708177.312
884,516.113,-41.504,-25.391,766.602,0.000,1731708177.315
885,-920.410,-18.555,-29.785,-965.820,0.000,1731708177.319
886,903.809,-14.648,-33.203,914.062,0.000,1731708177.323
887,989.258,-27.344,-32.715,985.352,0.000,1731708177.327
888,898.926,-36.133,-32.227,907.227,0.000,1731708177.332
889,-892.090,-27.832,-23.926,-891.602,0.000,1731708177.336
890,338.379,-32.227,-18.555,210.938,0.000,1731708177.339
891,-1000.000,-43.457,-23.438,-1000.000,0.000,1731708177.343
892,-1000.000,-46.387,-25.879,-988.281,0.000,1731708177.347
893,-975.098,-41.992,-19.531,-979.004,0.000,1731708177.351
894,-937.012,-34.668,-24.414,-937.988,0.000,1731708177.355
895,-1000.000,-30.762,-28.809,-1000.000,0.000,1731708177.359
896,-528.809,-20.996,-33.203,-372.070,0.000,1731708177.362
897,902.344,-9.277,-37.598,978.027,0.000,1731708177.366
898,-990.234,-19.531,-27.344,980.957,0.000,1731708177.370
899,917.480,-25.879,-32.227,931.152,0.000,1731708177.374
900,0.000,-20.508,-23.438,981.445,0.000,1731708177.379
901,0.000,-7.812,0.977,970.703,0.000,1731708177.383
902,0.000,-13.184,-25.391,970.703,0.000,1731708177.386
903,0.000,-33.691,-55.664,971.680,0.000,1731708177.390
904,0.000,-30.273,-56.152,966.797,0.000,1731708177.394
905,0.000,-30.762,-54.199,914.551,0.000,1731708177.398
906,0.000,-37.109,-40.527,-898.926,0.000,1731708177.402
907,0.000,-46.875,-31.738,122.559,0.000,1731708177.405
908,0.000,-63.477,-49.316,-1000.000,0.000,1731708177.409
909,0.000,-61.523,-55.664,-975.586,0.000,1731708177.413
910,0.000,-43.945,-44.922,-990.723,0.000,1731708177.417
911,0.000,-30.273,-42.480,-939.941,0.000,1731708177.421
912,984.863,-22.949,-36.621,-1000.000,0.000,1731708177.424
913,969.727,-39.551,-41.992,-617.676,0.000,1731708177.428
914,969.727,-38.574,-49.805,788.086,0.000,1731708177.432
915,970.215,-22.461,-50.781,-970.215,0.000,1731708177.436
916,970.215,-24.414,-41.016,915.039,0.000,1731708177.439
917,907.715,-21.484,-30.273,983.398,0.000,1731708177.443
918,-891.602,-21.484,-28.809,970.703,0.000,1731708177.447
919,184.082,-22.949,-26.855,970.703,0.000,1731708177.451
920,-1000.000,-19.531,-25.391,971.680,0.000,1731708177.455
921,-983.398,-27.344,-28.320,966.309,0.000,1731708177.459
922,-985.840,-36.133,-33.691,915.039,0.000,1731708177.462
923,-959.473,-25.879,-42.480,-899.414,0.000,1731708177.466
924,143.555,-36.621,-41.016,112.793,0.000,1731708177.471
925,-1000.000,-41.016,-22.949,-1000.000,0.000,1731708177.475
926,-978.027,-27.832,-17.090,-974.121,0.000,1731708177.479
927,-985.352,-24.414,-32.227,-991.211,0.000,1731708177.482
928,-972.168,-22.461,-31.738,-944.824,0.000,1731708177.486
929,-1000.000,-35.156,-29.297,-1000.000,0.000,1731708177.490
930,-1000.000,-38.086,-31.250,-702.148,0.000,1731708177.494
931,274.902,-13.672,-32.227,692.383,0.000,1731708177.498
932,-898.438,-13.672,-46.387,-954.590,0.000,1731708177.502
933,905.762,-36.133,-51.270,912.598,0.000,1731708177.505
934,988.281,-34.668,-47.852,989.258,0.000,1731708177.509
935,897.461,-21.484,-24.902,902.344,0.000,1731708177.513
936,-913.086,-8.789,-9.766,-896.484,0.000,1731708177.518
937,559.570,-17.578,-29.297,328.125,0.000,1731708177.522
938,-882.324,-50.781,-42.480,-1000.000,0.000,1731708177.526
939,-1000.000,-64.453,-41.992,-1000.000,0.000,1731708177.530
940,-958.496,-51.758,-43.945,-968.262,0.000,1731708177.534
941,-941.406,-49.805,-43.945,-942.383,0.000,1731708177.537
942,-1000.000,-48.340,-33.203,-1000.000,0.000,1731708177.541
943,-535.645,-28.320,-26.367,-339.844,0.000,1731708177.545
944,898.438,-17.578,-23.926,993.164,0.000,1731708177.549
945,-988.770,-49.805,-26.367,975.098,0.000,1731708177.553
946,930.176,-47.852,-28.320,946.289,0.000,1731708177.557
947,933.105,-16.113,-36.621,923.828,0.000,1731708177.560
948,-982.422,-29.785,-36.621,-963.867,0.000,1731708177.565
949,843.750,-41.504,-35.645,765.625,0.000,1731708177.569
950,-547.852,-47.363,-42.480,-633.301,0.000,1731708177.573
951,-1000.000,-52.246,-34.180,-1000.000,0.000,1731708177.577
952,-934.570,-37.598,-30.762,-938.477,0.000,1731708177.581
953,-1000.000,-21.484,-24.902,-1000.000,0.000,1731708177.585
954,-937.500,-12.207,-14.648,-945.312,0.000,1731708177.588
955,-1000.000,-16.113,-12.695,-1000.000,0.000,1731708177.592
956,-219.727,-41.504,-18.555,-144.043,0.000,1731708177.596
957,-958.496,-63.477,-32.715,-942.383,0.000,1731708177.600
958,953.613,-23.926,-27.344,944.824,0.000,1731708177.604
959,942.871,-9.277,-28.320,954.102,0.000,1731708177.608
960,977.051,-21.973,-26.367,954.102,0.000,1731708177.613
961,908.203,-20.508,-21.484,952.148,0.000,1731708177.616
962,-892.090,-21.973,-22.461,-990.723,0.000,1731708177.620
963,178.223,-30.762,-17.578,-136.230,0.000,1731708177.624
964,-1000.000,-32.227,-6.348,-1000.000,0.000,1731708177.628
965,-982.910,-22.949,0.977,-958.496,0.000,1731708177.632
966,-974.609,-7.812,-10.742,-987.305,0.000,1731708177.636
967,-944.336,-6.836,-28.809,-948.730,0.000,1731708177.639
968,-1000.000,-43.945,-36.621,-1000.000,0.000,1731708177.643
969,-219.727,-46.875,-27.344,-139.648,0.000,1731708177.647
970,-958.984,-24.414,-17.578,-942.871,0.000,1731708177.651
971,953.613,-26.367,-14.648,944.824,0.000,1731708177.655
972,958.008,-24.414,-14.648,959.473,0.000,1731708177.660
973,907.715,-22.949,-17.578,905.762,0.000,1731708177.663
974,-931.152,-15.137,-22.949,-906.250,0.000,1731708177.667
975,649.414,-17.578,-33.691,454.590,0.000,1731708177.671
976,-795.410,-47.363,-41.016,-935.059,0.000,1731708177.675
977,-1000.000,-45.898,-35.645,-1000.000,0.000,1731708177.679
978,-943.359,-22.949,-33.691,-961.914,0.000,1731708177.683
979,-997.070,-33.691,-29.297,-972.656,0.000,1731708177.686
980,-968.750,-59.082,-25.391,-1000.000,0.000,1731708177.690
981,-1000.000,-48.828,-18.066,-941.406,0.000,1731708177.694
982,76.172,-18.555,-16.113,371.094,0.000,1731708177.698
983,-901.367,-15.625,-28.809,-915.527,0.000,1731708177.702
984,917.480,-18.066,0.000,909.668,0.000,1731708177.707
985,966.797,-7.812,0.000,984.375,0.000,1731708177.710
986,955.566,-20.020,0.000,923.828,0.000,1731708177.714
987,932.129,-32.715,0.000,-981.445,0.000,1731708177.718
988,-922.363,-29.785,0.000,775.879,0.000,1731708177.722
989,-59.082,-27.344,0.000,-541.992,0.000,1731708177.726
990,-1000.000,-28.809,0.000,-1000.000,0.000,1731708177.730
991,-952.637,-44.922,0.000,-946.289,0.000,1731708177.733
992,-1000.000,-48.340,0.000,-1000.000,0.000,1731708177.737
993,-930.664,-28.320,0.000,-942.871,0.000,1731708177.741
994,-1000.000,-15.625,0.000,-1000.000,0.000,1731708177.745
995,-396.973,-10.254,0.000,-181.641,0.000,1731708177.749
996,0.000,-20.508,-34.180,-954.590,0.000,1731708177.754
997,0.000,-25.391,-46.875,951.172,0.000,1731708177.757
998,0.000,-20.020,-45.410,945.801,0.000,1731708177.761
999,0.000,-22.461,-37.109,916.016,0.000,1731708177.765
1000,0.000,-21.973,-34.180,-895.508,0.000,1731708177.769
1001,0.000,-18.555,-28.809,184.570,0.000,1731708177.773
1002,0.000,-31.250,-37.598,-1000.000,0.000,1731708177.777
1003,0.000,-43.945,-25.391,-984.863,0.000,1731708177.780
1004,0.000,-28.320,-10.742,-978.027,0.000,1731708177.784
1005,0.000,-31.250,-47.363,-940.430,0.000,1731708177.788
1006,0.000,-44.922,-63.477,-1000.000,0.000,1731708177.792
1007,0.000,-37.109,-47.852,-298.828,0.000,1731708177.796
1008,952.148,-21.484,-32.715,-988.281,0.000,1731708177.800
1009,992.188,-21.484,-28.809,967.773,0.000,1731708177.804
1010,924.805,-12.695,-23.438,936.523,0.000,1731708177.808
1011,982.910,-16.113,-20.996,979.492,0.000,1731708177.812
1012,970.215,-44.922,-43.945,970.703,0.000,1731708177.816
1013,970.215,-48.340,-61.035,970.703,0.000,1731708177.820
1014,972.656,-54.199,-53.711,974.609,0.000,1731708177.823
1015,957.031,-54.199,-48.828,953.125,0.000,1731708177.827
1016,928.223,-34.180,-46.387,938.477,0.000,1731708177.831
1017,-916.016,-31.738,-39.062,-939.941,0.000,1731708177.835
1018,-22.949,-36.621,-38.086,-82.031,0.000,1731708177.839
1019,-1000.000,-45.898,-35.156,-1000.000,0.000,1731708177.843
1020,-956.543,-41.504,-27.344,-953.613,0.000,1731708177.847
1021,-989.746,-36.133,-26.367,-999.512,0.000,1731708177.851
1022,-996.582,-32.227,-32.227,-965.820,0.000,1731708177.855
1023,-947.754,-31.738,-35.156,-1000.000,0.000,1731708177.859
1024,-1000.000,-32.227,-32.227,-945.801,0.000,1731708177.863
1025,-107.422,-17.090,-27.344,328.613,0.000,1731708177.866
1026,-931.641,-14.160,-28.320,-920.410,0.000,1731708177.870
1027,939.941,-20.020,-27.344,919.922,0.000,1731708177.874
1028,942.871,-15.137,-26.367,947.266,0.000,1731708177.878
1029,924.805,-27.344,-32.715,957.031,0.000,1731708177.882
1030,-905.273,-35.645,-33.691,-991.211,0.000,1731708177.886
1031,43.457,-41.016,-31.738,-186.035,0.000,1731708177.889
1032,-1000.000,-43.945,-20.508,-1000.000,0.000,1731708177.894
1033,-964.844,-37.109,-17.090,-950.195,0.000,1731708177.898
1034,-984.863,-22.461,-37.598,-994.629,0.000,1731708177.902
1035,-940.918,-23.926,-32.715,-941.895,0.000,1731708177.906
1036,-1000.000,-25.879,-13.184,-1000.000,0.000,1731708177.910
1037,-219.727,-11.230,-33.203,-190.430,0.000,1731708177.914
1038,-958.496,0.000,-28.809,-951.660,0.000,1731708177.917
1039,953.613,-12.695,-34.668,950.195,0.000,1731708177.921
1040,945.312,-25.391,-58.594,953.613,0.000,1731708177.925
1041,963.379,-24.902,-34.668,938.477,0.000,1731708177.929
1042,928.711,-26.855,-23.438,989.258,0.000,1731708177.933
1043,-916.992,-25.391,-28.320,906.250,0.000,1731708177.937
1044,-31.250,-31.738,-27.832,-378.906,0.000,1731708177.942
1045,-1000.000,-27.832,-16.113,-1000.000,0.000,1731708177.945
1046,-956.543,-14.648,-20.996,-947.266,0.000,1731708177.949
1047,-986.816,-35.645,-41.992,-987.305,0.000,1731708177.953
1048,-944.336,-45.898,-37.598,-967.285,0.000,1731708177.957
1049,-1000.000,-30.273,-21.484,-1000.000,0.000,1731708177.961
1050,-169.922,-19.043,-17.578,22.461,0.000,1731708177.965
1051,-946.777,-8.789,-23.926,-922.852,0.000,1731708177.968
1052,946.777,-18.066,-25.391,929.199,0.000,1731708177.972
1053,946.777,-27.832,-17.090,963.867,0.000,1731708177.976
1054,975.586,-19.531,-17.090,950.195,0.000,1731708177.980
1055,908.203,-17.090,-18.555,957.520,0.000,1731708177.984
1056,-892.090,-20.020,0.000,987.305,0.000,1731708177.989
1057,176.758,-35.156,0.000,-166.504,0.000,1731708177.992
1058,-1000.000,-41.016,0.000,-1000.000,0.000,1731708177.996
1059,-985.840,-20.996,0.000,-965.820,0.000,1731708178.000
1060,-958.008,-23.438,0.000,-956.055,0.000,1731708178.004
1061,-970.215,-33.203,0.000,-1000.000,0.000,1731708178.008
1062,-1000.000,-20.508,0.000,-967.773,0.000,1731708178.012
1063,38.086,-1.953,0.000,316.895,0.000,1731708178.015
1064,-905.762,-19.043,0.000,-914.062,0.000,1731708178.019
1065,920.898,-41.016,0.000,911.621,0.000,1731708178.023
1066,974.121,-27.832,0.000,979.492,0.000,1731708178.027
1067,897.461,-17.578,0.000,902.832,0.000,1731708178.031
1068,-899.414,-16.602,-10.254,-892.578,0.000,1731708178.036
1069,459.961,-25.879,-14.160,308.105,0.000,1731708178.039
1070,-954.590,-41.504,-12.207,-1000.000,0.000,1731708178.043
1071,-1000.000,-41.504,-15.625,-1000.000,0.000,1731708178.047
1072,-960.938,-33.203,-28.320,-976.074,0.000,1731708178.051
1073,-977.051,-30.762,-32.227,-952.148,0.000,1731708178.055
1074,-1000.000,-43.457,-26.367,-1000.000,0.000,1731708178.059
1075,-997.070,-49.316,-19.531,-749.023,0.000,1731708178.062
1076,322.754,-33.203,-23.926,645.020,0.000,1731708178.066
1077,-901.367,-10.742,-11.230,-945.801,0.000,1731708178.070
1078,904.785,11.719,-2.930,910.156,0.000,1731708178.074
1079,989.746,4.883,-27.832,991.699,0.000,1731708178.078
1080,909.180,-28.320,-40.527,902.344,0.000,1731708178.083
1081,-956.055,-42.480,-41.992,-905.762,0.000,1731708178.086
1082,751.953,-39.551,-36.621,427.734,0.000,1731708178.090
1083,-674.805,-45.898,-27.832,-944.824,0.000,1731708178.094
1084,-1000.000,-40.039,-27.832,-1000.000,0.000,1731708178.098
1085,-945.801,-28.320,-30.762,-966.797,0.000,1731708178.102
1086,-972.656,-23.438,-21.973,-948.730,0.000,1731708178.106
1087,-1000.000,-24.902,-9.277,-1000.000,0.000,1731708178.109
1088,-968.262,-15.137,-12.695,-634.766,0.000,1731708178.113
1089,371.582,-4.395,-27.832,760.742,0.000,1731708178.117
1090,-905.762,-15.137,-40.039,-967.285,0.000,1731708178.121
1091,904.297,-29.785,-37.598,918.945,0.000,1731708178.125
1092,975.586,-36.621,-20.020,966.309,0.000,1731708178.129
1093,910.156,-33.691,-21.973,939.453,0.000,1731708178.133
1094,-894.043,-22.461,-27.832,-951.660,0.000,1731708178.137
1095,155.273,-27.344,-30.273,-62.988,0.000,1731708178.141
1096,-1000.000,-45.410,-24.414,-1000.000,0.000,1731708178.145
1097,-979.492,-30.762,-13.184,-959.473,0.000,1731708178.149
1098,-988.770,-18.066,-20.996,-994.141,0.000,1731708178.152
1099,-932.129,-43.945,-38.574,-936.035,0.000,1731708178.156
1100,-1000.000,-46.875,-44.434,-1000.000,0.000,1731708178.160
1101,-494.629,-29.297,-37.598,-316.406,0.000,1731708178.164
1102,921.875,-17.090,-39.551,-996.094,0.000,1731708178.168
1103,-997.070,-9.277,-42.480,971.191,0.000,1731708178.172
1104,920.410,-11.719,-28.809,938.965,0.000,1731708178.176
1105,984.863,-21.973,-17.090,966.797,0.000,1731708178.180
1106,907.227,-22.461,-17.578,934.082,0.000,1731708178.184
1107,-891.113,-18.555,-27.344,-944.336,0.000,1731708178.188
1108,188.965,-31.738,-37.598,-16.113,0.000,1731708178.192
1109,-1000.000,-38.574,-33.691,-1000.000,0.000,1731708178.195
1110,-984.375,-51.758,-27.832,-965.332,0.000,1731708178.199
1111,-983.887,-55.664,-34.668,-997.070,0.000,1731708178.203
1112,-964.355,-34.668,-30.273,-938.477,0.000,1731708178.207
1113,-1000.000,-34.668,-20.996,-1000.000,0.000,1731708178.211
1114,-954.590,-29.785,-36.621,-579.590,0.000,1731708178.215
1115,394.531,-14.160,-42.480,814.941,0.000,1731708178.218
1116,0.000,-18.555,-43.945,-977.539,0.000,1731708178.223
1117,0.000,-25.879,-37.598,929.688,0.000,1731708178.227
1118,0.000,-26.367,-27.832,919.922,0.000,1731708178.231
1119,0.000,-30.762,-37.598,-937.988,0.000,1731708178.235
1120,0.000,-25.391,-43.945,626.953,0.000,1731708178.238
1121,0.000,-40.527,-41.016,-770.020,0.000,1731708178.242
1122,0.000,-63.965,-28.809,-1000.000,0.000,1731708178.246
1123,0.000,-52.734,-32.715,-947.266,0.000,1731708178.250
1124,0.000,-43.457,-46.875,-998.535,0.000,1731708178.254
1125,0.000,-40.527,-42.480,-964.844,0.000,1731708178.258
1126,0.000,-24.902,-32.715,-1000.000,0.000,1731708178.261
1127,0.000,-11.719,-28.320,-1.953,0.000,1731708178.265
1128,-907.715,-14.160,-42.480,-930.176,0.000,1731708178.269
1129,915.039,-19.043,-49.316,933.594,0.000,1731708178.273
1130,931.641,-18.066,-40.039,954.590,0.000,1731708178.277
1131,-1000.000,-22.949,-30.273,916.504,0.000,1731708178.281
1132,902.344,-27.344,-34.180,-895.996,0.000,1731708178.284
1133,-459.473,-52.734,-57.617,137.695,0.000,1731708178.288
1134,-1000.000,-53.223,-45.898,-1000.000,0.000,1731708178.292
1135,-934.082,-36.133,-31.738,-977.051,0.000,1731708178.296
1136,-1000.000,-50.781,-40.039,-986.816,0.000,1731708178.300
1137,-937.500,-68.359,-48.828,-961.914,0.000,1731708178.304
1138,-1000.000,-54.199,-45.898,-1000.000,0.000,1731708178.307
1139,-219.727,-34.668,-36.133,-897.461,0.000,1731708178.311
1140,114.258,-7.812,-16.602,431.641,0.000,1731708178.316
1141,-898.926,8.789,-7.812,-922.363,0.000,1731708178.320
1142,914.551,-15.137,-39.062,910.645,0.000,1731708178.324
1143,968.262,-21.973,-48.340,974.609,0.000,1731708178.328
1144,906.250,-34.180,-43.457,912.598,0.000,1731708178.332
1145,-890.625,-39.062,-46.387,-896.484,0.000,1731708178.335
1146,216.797,-29.297,-28.809,142.578,0.000,1731708178.339
1147,-1000.000,-42.480,-22.461,-1000.000,0.000,1731708178.343
1148,-988.770,-53.223,-37.109,-978.027,0.000,1731708178.347
1149,-971.680,-43.457,-36.133,-983.398,0.000,1731708178.351
1150,-1000.000,-30.273,-22.949,-975.098,0.000,1731708178.355
1151,-944.824,-26.367,-37.109,-1000.000,0.000,1731708178.358
1152,-1000.000,-51.270,-58.594,-979.492,0.000,1731708178.363
1153,-136.230,-52.734,-42.480,250.977,0.000,1731708178.367
1154,-937.988,-19.043,-28.320,-921.387,0.000,1731708178.371
1155,941.895,-18.066,-33.203,918.457,0.000,1731708178.375
1156,949.219,-18.066,-29.297,968.750,0.000,1731708178.379
1157,974.609,-18.066,-25.391,972.168,0.000,1731708178.382
1158,969.727,-16.602,-25.391,970.703,0.000,1731708178.386
1159,971.680,-14.648,-24.902,973.633,0.000,1731708178.390
1160,961.914,-36.133,-22.949,957.031,0.000,1731708178.394
1161,920.410,-39.551,-19.531,931.152,0.000,1731708178.398
1162,-905.273,-24.414,-12.207,-925.781,0.000,1731708178.402
1163,45.410,-35.156,-14.648,-26.855,0.000,1731708178.406
1164,-1000.000,-44.434,-23.438,-1000.000,0.000,1731708178.410
1165,-964.844,-40.039,-21.484,-958.984,0.000,1731708178.414
1166,-986.816,-35.645,-24.902,-997.559,0.000,1731708178.418
1167,-988.770,-24.902,-30.762,-960.449,0.000,1731708178.422
1168,-961.914,-18.555,-29.785,-1000.000,0.000,1731708178.426
1169,-1000.000,-20.508,-16.602,-904.297,0.000,1731708178.430
1170,24.414,-13.184,-17.090,416.504,0.000,1731708178.433
1171,-908.203,-23.438,-20.996,-921.875,0.000,1731708178.437
1172,923.340,-41.016,-23.438,914.551,0.000,1731708178.441
1173,958.496,-6.348,-22.949,958.984,0.000,1731708178.445
1174,912.598,-2.441,-20.996,940.918,0.000,1731708178.449
1175,-895.020,-37.598,-45.410,-953.613,0.000,1731708178.453
1176,145.508,-55.664,-53.223,-75.195,0.000,1731708178.457
1177,-1000.000,-54.199,-27.832,-1000.000,0.000,1731708178.461
1178,-978.027,-25.391,-1.465,-958.008,0.000,1731708178.465
1179,-990.723,-35.156,-14.648,-996.582,0.000,1731708178.469
1180,-931.641,-51.758,-47.363,-934.082,0.000,1731708178.473
1181,-1000.000,-40.039,-51.758,-1000.000,0.000,1731708178.477
1182,-536.133,-19.531,-37.598,-352.539,0.000,1731708178.480
1183,897.949,-24.902,-20.020,987.793,0.000,1731708178.484
1184,-988.770,-38.086,-27.832,977.539,0.000,1731708178.488
1185,921.875,-18.555,-39.062,942.383,0.000,1731708178.492
1186,963.379,-5.371,-30.762,937.988,0.000,1731708178.496
1187,944.336,-21.973,-34.668,999.512,0.000,1731708178.500
1188,-943.848,-32.227,-35.156,881.348,0.000,1731708178.504
1189,-147.949,-30.762,-23.926,-442.383,0.000,1731708178.508
1190,-1000.000,-40.039,-22.461,-1000.000,0.000,1731708178.512
1191,-944.336,-40.039,-22.461,-939.941,0.000,1731708178.516
1192,-1000.000,-40.527,-13.184,-1000.000,0.000,1731708178.520
1193,-927.734,-18.555,-8.789,-932.129,0.000,1731708178.523
1194,-1000.000,-25.879,-21.973,-1000.000,0.000,1731708178.527
1195,-572.754,-53.711,-44.922,-343.750,0.000,1731708178.531
1196,868.164,-26.855,-48.340,991.699,0.000,1731708178.535
1197,-980.957,-28.320,-39.551,976.074,0.000,1731708178.539
1198,915.527,-39.062,-34.668,939.453,0.000,1731708178.543
1199,982.910,-41.504,-29.297,953.125,0.000,1731708178.546
1200,911.621,-39.551,-30.762,964.844,0.000,1731708178.551
1201,-895.508,-22.949,-44.922,976.562,0.000,1731708178.555
1202,137.695,-23.926,-41.992,-229.980,0.000,1731708178.559
1203,-1000.000,-35.156,-24.902,-1000.000,0.000,1731708178.563
1204,-977.051,-39.062,-22.461,-950.684,0.000,1731708178.566
1205,-983.887,-29.785,-20.020,-995.605,0.000,1731708178.570
1206,-936.523,-40.527,-11.230,-942.383,0.000,1731708178.574
1207,-1000.000,-52.734,-12.207,-1000.000,0.000,1731708178.578
1208,-337.402,-22.461,-14.648,-191.406,0.000,1731708178.582
1209,997.559,-8.301,-23.438,-953.613,0.000,1731708178.586
1210,973.145,-20.508,-49.805,951.172,0.000,1731708178.590
1211,948.242,-37.109,-54.199,955.078,0.000,1731708178.593
1212,914.551,-39.551,-44.922,906.738,0.000,1731708178.598
1213,-941.895,-32.715,-39.062,-903.320,0.000,1731708178.602
1214,695.312,-40.039,-36.133,427.246,0.000,1731708178.606
1215,-742.676,-50.293,-28.809,-952.148,0.000,1731708178.609
1216,-1000.000,-43.457,-23.438,-1000.000,0.000,1731708178.613
1217,-944.336,-43.945,-22.461,-965.820,0.000,1731708178.617
1218,-987.793,-54.688,-20.508,-962.891,0.000,1731708178.621
1219,-985.352,-26.855,-23.438,-1000.000,0.000,1731708178.625
1220,-1000.000,-8.789,-17.090,-841.797,0.000,1731708178.629
1221,187.500,-28.320,-8.789,514.648,0.000,1731708178.632
1222,-896.484,-40.527,-30.273,-929.688,0.000,1731708178.636
1223,909.668,-41.504,-49.805,909.668,0.000,1731708178.640
1224,984.375,-40.039,-48.340,989.258,0.000,1731708178.645
1225,909.668,-43.945,-39.062,901.367,0.000,1731708178.649
1226,-957.031,-33.691,-27.344,-905.273,0.000,1731708178.653
1227,754.883,-24.902,-21.484,432.129,0.000,1731708178.657
1228,-670.898,-43.457,-24.902,-945.312,0.000,1731708178.660
1229,-1000.000,-36.621,-41.504,-1000.000,0.000,1731708178.664
1230,-936.523,-26.367,-52.246,-962.402,0.000,1731708178.668
1231,-1000.000,-41.504,-46.387,-977.051,0.000,1731708178.672
1232,-947.266,-50.781,-43.945,-1000.000,0.000,1731708178.676
1233,-1000.000,-46.387,-43.945,-956.543,0.000,1731708178.680
1234,-113.281,-26.855,-33.203,313.477,0.000,1731708178.684
1235,-933.105,-10.254,-26.367,-919.434,0.000,1731708178.687
1236,938.965,-19.531,-34.180,915.039,0.000,1731708178.692
1237,960.938,-23.926,-39.062,972.168,0.000,1731708178.696
1238,901.367,-19.531,-39.062,910.156,0.000,1731708178.700
1239,-894.531,-20.020,-37.109,-895.020,0.000,1731708178.704
1240,399.414,-29.297,-37.109,192.383,0.000,1731708178.708
1241,-986.816,-43.945,-36.133,-1000.000,0.000,1731708178.711
1242,-1000.000,-38.574,-30.762,-986.328,0.000,1731708178.715
1243,-969.238,-30.762,-30.762,-979.004,0.000,1731708178.719
1244,-938.477,-31.250,-24.414,-938.965,0.000,1731708178.723
1245,-1000.000,-35.645,-24.414,-1000.000,0.000,1731708178.727
1246,-506.348,-19.531,-38.574,-334.473,0.000,1731708178.731
1247,915.527,-4.883,-35.156,996.094,0.000,1731708178.734
1248,-994.629,-27.832,-35.156,974.121,0.000,1731708178.739
1249,932.617,-37.109,-36.133,944.824,0.000,1731708178.743
1250,910.156,-26.367,-29.297,908.691,0.000,1731708178.747
1251,-901.367,-23.438,-23.438,-898.438,0.000,1731708178.751
1252,479.004,-28.320,-26.855,423.828,0.000,1731708178.755
1253,-943.848,-38.086,-37.109,-968.262,0.000,1731708178.758
1254,-1000.000,-27.832,-36.621,-1000.000,0.000,1731708178.762
1255,-955.078,-24.414,-36.621,-962.402,0.000,1731708178.766
1256,-991.211,-38.574,-35.156,-979.492,0.000,1731708178.770
1257,-978.027,-30.273,-28.809,-1000.000,0.000,1731708178.774
1258,-1000.000,-25.391,-31.738,-998.535,0.000,1731708178.778
1259,139.648,-20.020,-31.250,278.320,0.000,1731708178.782
1260,-897.461,-12.207,-27.344,-908.203,0.000,1731708178.786
1261,912.598,-11.230,-25.391,911.133,0.000,1731708178.790
1262,967.285,-12.695,-28.809,973.145,0.000,1731708178.794
1263,970.703,-26.367,-33.691,969.238,0.000,1731708178.798
1264,969.727,-27.832,-32.227,974.121,0.000,1731708178.802
1265,969.727,-19.043,-31.738,962.891,0.000,1731708178.805
1266,984.375,-21.484,-29.297,957.031,0.000,1731708178.809
1267,895.996,-24.902,-21.973,897.461,0.000,1731708178.813
1268,-907.227,-27.832,-23.438,-908.691,0.000,1731708178.817
1269,525.879,-25.879,-30.762,515.137,0.000,1731708178.821
1270,-912.598,-28.809,-28.809,-899.414,0.000,1731708178.825
1271,-1000.000,-35.645,-15.625,-1000.000,0.000,1731708178.829
1272,-946.289,-40.527,-20.020,-948.242,0.000,1731708178.833
1273,-1000.000,-38.574,-36.133,-1000.000,0.000,1731708178.837
1274,-928.223,-24.414,-48.828,-936.523,0.000,1731708178.841
1275,-1000.000,-22.461,-54.688,-1000.000,0.000,1731708178.845
1276,-411.621,-25.391,-37.598,-244.629,0.000,1731708178.849
1277,964.844,-20.508,-28.809,-968.262,0.000,1731708178.852
1278,986.816,-12.695,-39.551,958.496,0.000,1731708178.856
1279,941.895,-1.465,-43.457,953.613,0.000,1731708178.860
1280,920.410,-14.160,-34.180,911.133,0.000,1731708178.864
1281,-955.078,-23.438,-35.645,-922.852,0.000,1731708178.868
1282,746.094,-25.391,-41.504,557.129,0.000,1731708178.872
1283,-682.617,-42.480,-44.922,-846.191,0.000,1731708178.875
1284,-1000.000,-39.062,-43.945,-1000.000,0.000,1731708178.880
1285,-937.500,-32.227,-31.738,-953.125,0.000,1731708178.884
1286,-1000.000,-33.691,-28.809,-985.352,0.000,1731708178.888
1287,-954.590,-28.809,-31.250,-992.676,0.000,1731708178.892
1288,-1000.000,-36.133,-26.855,-1000.000,0.000,1731708178.895
1289,-39.551,-35.645,-26.855,200.195,0.000,1731708178.899
1290,-917.969,-15.625,-17.090,-911.621,0.000,1731708178.903
1291,929.688,-6.348,-14.648,916.504,0.000,1731708178.907
1292,971.191,-6.348,-23.926,978.027,0.000,1731708178.911
1293,902.344,-20.020,-33.691,901.367,0.000,1731708178.915
1294,-924.316,-39.062,-31.738,-900.879,0.000,1731708178.919
1295,617.188,-60.059,-36.621,410.645,0.000,1731708178.922
1296,-829.102,-65.918,-39.551,-966.309,0.000,1731708178.927
1297,-1000.000,-52.734,-41.016,-1000.000,0.000,1731708178.931
1298,-956.055,-48.340,-38.086,-968.750,0.000,1731708178.935
1299,-948.242,-51.270,-28.320,-942.383,0.000,1731708178.938
1300,-1000.000,-54.199,-36.621,-1000.000,0.000,1731708178.942
1301,-695.312,-46.875,-43.457,-558.105,0.000,1731708178.946
1302,749.512,-13.184,-40.527,857.422,0.000,1731708178.950
1303,-955.566,-7.324,-41.016,-982.422,0.000,1731708178.954
1304,908.203,-23.438,-39.551,917.480,0.000,1731708178.958
1305,995.117,-22.461,-33.691,987.793,0.000,1731708178.961
1306,897.949,-26.367,-30.273,905.273,0.000,1731708178.965
1307,-894.043,-32.227,-30.273,-891.602,0.000,1731708178.969
1308,381.836,-30.762,-28.809,241.211,0.000,1731708178.974
1309,-994.629,-32.227,-21.484,-1000.000,0.000,1731708178.978
1310,-1000.000,-41.992,-20.020,-993.652,0.000,1731708178.981
1311,-959.961,-43.945,-25.391,-969.727,0.000,1731708178.985
1312,-947.754,-38.574,-34.180,-945.801,0.000,1731708178.989
1313,-1000.000,-46.875,-33.691,-1000.000,0.000,1731708178.993
1314,-250.488,-49.316,-22.949,-223.633,0.000,1731708178.997
1315,-969.238,-36.133,-19.043,-960.449,0.000,1731708179.001
1316,958.984,-21.484,-22.949,955.078,0.000,1731708179.004
1317,940.430,-16.602,-29.785,942.871,0.000,1731708179.008
1318,977.539,-18.555,-35.156,977.539,0.000,1731708179.012
1319,970.215,-31.250,-30.762,970.703,0.000,1731708179.016
1320,969.727,-40.527,-27.344,970.703,0.000,1731708179.021
1321,970.215,-37.109,-32.227,971.191,0.000,1731708179.025
1322,970.703,-38.574,-31.250,969.238,0.000,1731708179.029
1323,907.715,-42.480,-37.598,911.133,0.000,1731708179.032
1324,-891.602,-30.762,-36.133,-894.531,0.000,1731708179.036
1325,186.523,-33.203,-34.180,152.344,0.000,1731708179.040
1326,-1000.000,-34.668,-41.016,-1000.000,0.000,1731708179.044
1327,-983.887,-33.691,-43.945,-979.492,0.000,1731708179.048
1328,-986.328,-53.711,-48.828,-988.770,0.000,1731708179.052
1329,-956.055,-52.246,-46.875,-939.941,0.000,1731708179.055
1330,-1000.000,-42.480,-55.176,-1000.000,0.000,1731708179.059
1331,-886.719,-34.668,-70.312,-611.816,0.000,1731708179.063
1332,502.441,-23.438,-57.617,796.875,0.000,1731708179.068
1333,-918.945,-24.902,-43.945,-971.680,0.000,1731708179.072
1334,903.320,-25.879,-47.852,915.527,0.000,1731708179.076
1335,980.957,-25.879,-51.270,983.887,0.000,1731708179.079
1336,970.215,-27.344,-40.039,970.703,0.000,1731708179.083
1337,970.215,-29.785,-23.926,970.215,0.000,1731708179.087
1338,970.215,-42.969,-25.879,971.191,0.000,1731708179.091
1339,970.215,-35.645,-33.691,969.727,0.000,1731708179.095
1340,907.227,-20.996,-36.621,910.156,0.000,1731708179.099
1341,-891.602,-22.949,-23.438,-894.043,0.000,1731708179.103
1342,185.547,-32.227,-14.160,159.668,0.000,1731708179.106
1343,-1000.000,-41.504,-19.043,-1000.000,0.000,1731708179.110
1344,-983.398,-44.434,-20.996,-979.980,0.000,1731708179.115
1345,-981.445,-38.574,-25.391,-987.793,0.000,1731708179.119
1346,-975.098,-23.926,-35.645,-947.754,0.000,1731708179.123
1347,-996.582,-22.949,-45.898,-1000.000,0.000,1731708179.126
1348,-1000.000,-32.227,-48.828,-733.398,0.000,1731708179.130
1349,251.953,-19.531,-35.645,656.738,0.000,1731708179.134
1350,-897.949,-11.230,-26.367,-948.730,0.000,1731708179.138
1351,906.738,-11.719,-30.273,911.621,0.000,1731708179.142
1352,981.445,-20.508,-31.738,983.887,0.000,1731708179.146
1353,898.438,-30.273,-31.738,907.227,0.000,1731708179.150
1354,-893.066,-28.320,-31.738,-893.555,0.000,1731708179.153
1355,361.816,-43.945,-40.527,215.332,0.000,1731708179.157
1356,0.000,-53.223,-40.527,-1000.000,0.000,1731708179.162
1357,0.000,-49.316,-34.668,-989.746,0.000,1731708179.166
1358,0.000,-43.945,-31.250,-972.168,0.000,1731708179.170
1359,0.000,-32.227,-25.391,-944.824,0.000,1731708179.173
1360,0.000,-32.227,-16.113,-1000.000,0.000,1731708179.177
1361,0.000,-36.133,-22.949,-228.516,0.000,1731708179.181
1362,0.000,-23.438,-34.668,-961.914,0.000,1731708179.185
1363,0.000,-34.180,-41.016,955.566,0.000,1731708179.189
1364,0.000,-43.457,-41.992,943.359,0.000,1731708179.193
1365,0.000,-35.156,-33.203,976.074,0.000,1731708179.197
1366,0.000,-33.691,-33.203,912.598,0.000,1731708179.200
1367,0.000,-34.668,-34.668,-900.879,0.000,1731708179.204
1368,380.859,-27.832,-25.391,164.062,0.000,1731708179.209
1369,-995.117,-30.762,-13.672,-1000.000,0.000,1731708179.213
1370,-1000.000,-42.969,-15.137,-985.352,0.000,1731708179.217
1371,-956.543,-47.363,-37.109,-964.355,0.000,1731708179.220
1372,-952.148,-35.645,-47.852,-961.914,0.000,1731708179.224
1373,-1000.000,-30.762,-39.551,-1000.000,0.000,1731708179.228
1374,-190.918,-16.602,-36.133,-56.641,0.000,1731708179.232
1375,-951.172,-4.883,-30.273,-928.711,0.000,1731708179.236
1376,949.707,-22.949,-34.668,935.059,0.000,1731708179.240
1377,944.824,-25.391,-34.180,957.520,0.000,1731708179.244
1378,976.562,-15.625,-27.832,961.914,0.000,1731708179.247
1379,906.738,-19.531,-36.133,932.617,0.000,1731708179.251
1380,-891.602,-20.020,-29.297,-940.430,0.000,1731708179.256
1381,188.965,-26.855,-28.320,-0.488,0.000,1731708179.260
1382,-1000.000,-43.457,-41.992,-1000.000,0.000,1731708179.263
1383,-985.840,-37.598,-39.062,-972.656,0.000,1731708179.267
1384,-963.379,-26.367,-32.715,-958.496,0.000,1731708179.271
1385,-960.449,-22.949,-29.297,-992.188,0.000,1731708179.275
1386,-1000.000,-23.438,-28.320,-1000.000,0.000,1731708179.279
1387,-49.316,-19.531,-36.133,170.898,0.000,1731708179.283
1388,-919.922,-6.836,-34.180,-912.109,0.000,1731708179.287
1389,930.664,-2.441,-34.668,917.969,0.000,1731708179.290
1390,955.078,-19.043,-41.504,969.238,0.000,1731708179.294
1391,973.145,-25.879,-42.969,961.426,0.000,1731708179.298
1392,969.727,-23.926,-43.457,991.699,0.000,1731708179.303
1393,969.727,-28.320,-34.180,918.457,0.000,1731708179.306
1394,971.680,-25.391,-29.297,824.707,0.000,1731708179.310
1395,960.938,-19.043,-24.902,933.105,0.000,1731708179.314
1396,921.875,-12.695,-10.742,971.191,0.000,1731708179.318
1397,-907.227,-13.184,-15.625,987.305,0.000,1731708179.322
1398,31.738,-17.578,-35.645,-198.730,0.000,1731708179.326
1399,-1000.000,-26.367,-32.227,-1000.000,0.000,1731708179.330
1400,-963.379,-34.180,-35.645,-951.660,0.000,1731708179.333
1401,-985.840,-37.109,-47.852,-991.211,0.000,1731708179.337
1402,-940.918,-36.133,-41.992,-947.754,0.000,1731708179.341
1403,-1000.000,-31.738,-34.668,-1000.000,0.000,1731708179.345
1404,-219.727,-17.578,-35.156,-138.672,0.000,1731708179.349
1405,-958.984,-9.277,-29.785,-942.383,0.000,1731708179.353
1406,953.613,-4.395,-24.902,944.336,0.000,1731708179.357
1407,943.359,-6.836,-34.668,956.055,0.000,1731708179.361
1408,974.121,-15.625,-41.504,944.336,0.000,1731708179.365
1409,912.109,-20.020,-43.945,975.098,0.000,1731708179.369
1410,-895.996,-27.832,-46.875,938.965,0.000,1731708179.373
1411,132.812,-33.203,-43.945,-278.809,0.000,1731708179.376
1412,-1000.000,-44.434,-39.062,-1000.000,0.000,1731708179.380
1413,-985.840,-39.551,-36.133,-963.379,0.000,1731708179.384
1414,-939.453,-29.297,-32.715,-943.359,0.000,1731708179.388
1415,-1000.000,-27.832,-32.715,-1000.000,0.000,1731708179.392
1416,-994.629,-24.414,-35.156,-805.176,0.000,1731708179.397
1417,326.660,-22.461,-39.062,575.195,0.000,1731708179.400
1418,-901.367,-20.020,-38.574,-935.547,0.000,1731708179.404
1419,904.785,-23.438,-39.551,909.180,0.000,1731708179.408
1420,975.586,-26.855,-41.992,985.840,0.000,1731708179.412
1421,970.703,-28.809,-37.109,944.824,0.000,1731708179.416
1422,907.227,-29.785,-32.227,966.797,0.000,1731708179.420
1423,-891.602,-32.715,-39.551,938.477,0.000,1731708179.424
1424,188.965,-43.945,-41.992,-206.055,0.000,1731708179.427
1425,-1000.000,-61.523,-36.621,-1000.000,0.000,1731708179.431
1426,-998.047,-59.570,-43.945,-974.121,0.000,1731708179.435
1427,-916.504,-44.434,-55.664,-924.805,0.000,1731708179.439
1428,0.000,-36.133,-55.176,-1000.000,0.000,1731708179.444
1429,0.000,-39.551,-46.387,-614.258,0.000,1731708179.447
1430,0.000,-34.180,-46.387,797.852,0.000,1731708179.451
1431,0.000,-34.668,-51.758,-971.191,0.000,1731708179.455
1432,0.000,-37.598,-41.504,915.527,0.000,1731708179.459
1433,0.000,-27.832,-31.738,986.328,0.000,1731708179.463
1434,0.000,-31.738,-37.109,906.738,0.000,1731708179.467
1435,0.000,-34.180,-39.062,-892.090,0.000,1731708179.471
1436,0.000,-41.016,-43.457,217.773,0.000,1731708179.474
1437,0.000,-56.152,-47.363,-1000.000,0.000,1731708179.478
1438,0.000,-47.363,-33.691,-989.258,0.000,1731708179.482
1439,0.000,-41.016,-31.250,-976.562,0.000,1731708179.486
1440,-937.500,-41.504,-39.062,-939.941,0.000,1731708179.491
1441,-1000.000,-35.156,-33.691,-1000.000,0.000,1731708179.495
1442,-445.801,-27.344,-29.785,-324.219,0.000,1731708179.498
1443,948.730,-14.648,-31.738,-999.512,0.000,1731708179.502
1444,993.164,-18.066,-32.715,972.168,0.000,1731708179.506
1445,924.805,-26.855,-39.062,937.988,0.000,1731708179.510
1446,981.934,-29.785,-44.922,965.820,0.000,1731708179.514
1447,910.156,-36.133,-50.293,935.059,0.000,1731708179.518
1448,-894.043,-50.293,-55.176,-942.871,0.000,1731708179.521
1449,156.738,-55.664,-48.828,-32.715,0.000,1731708179.525
1450,-1000.000,-47.852,-45.898,-1000.000,0.000,1731708179.529
1451,-979.980,-44.922,-39.062,-963.379,0.000,1731708179.533
1452,0.000,-41.992,0.000,-982.910,0.000,1731708179.538
1453,0.000,-32.715,0.000,-948.730,0.000,1731708179.541
1454,0.000,-35.156,0.000,-1000.000,0.000,1731708179.545
1455,0.000,-22.461,0.000,-144.531,0.000,1731708179.549
1456,0.000,-6.836,0.000,-942.383,0.000,1731708179.553
1457,0.000,-24.902,0.000,944.824,0.000,1731708179.557
1458,0.000,-27.344,0.000,956.055,0.000,1731708179.561
1459,0.000,-23.438,0.000,944.336,0.000,1731708179.565
1460,0.000,-29.297,0.000,972.656,0.000,1731708179.568
1461,0.000,-26.367,0.000,959.473,0.000,1731708179.572
1462,0.000,-37.109,0.000,-281.250,0.000,1731708179.576
1463,0.000,-47.852,0.000,-1000.000,0.000,1731708179.580
1464,-964.355,-49.805,-31.738,-953.613,0.000,1731708179.585
1465,-969.727,-41.016,-38.086,-969.727,0.000,1731708179.588
1466,-966.797,-20.996,-52.246,-996.094,0.000,1731708179.592
1467,-1000.000,-19.043,-56.641,-1000.000,0.000,1731708179.596
1468,40.527,-20.508,-63.477,220.215,0.000,1731708179.600
1469,-905.273,-12.695,-55.176,-909.180,0.000,1731708179.604
1470,920.898,-7.812,-55.664,914.551,0.000,1731708179.608
1471,968.750,-33.691,-57.617,980.469,0.000,1731708179.612
1472,942.383,-41.992,-51.270,918.945,0.000,1731708179.615
1473,959.473,-18.555,-58.105,-971.680,0.000,1731708179.619
1474,-980.957,-18.555,-65.430,767.578,0.000,1731708179.623
1475,-243.164,-25.879,-73.242,-596.680,0.000,1731708179.627
1476,-1000.000,-29.297,-65.430,-1000.000,0.000,1731708179.631
1477,-948.242,-36.621,-45.898,-952.637,0.000,1731708179.635
1478,-964.844,-36.621,-40.527,-958.496,0.000,1731708179.639
1479,-1000.000,-23.926,-47.852,-1000.000,0.000,1731708179.643
1480,-1000.000,-18.555,-46.875,-843.750,0.000,1731708179.647
1481,305.664,2.441,-43.945,527.832,0.000,1731708179.651
1482,-899.902,5.371,-48.828,-928.711,0.000,1731708179.655
1483,905.273,-20.508,-60.547,908.203,0.000,1731708179.658
1484,987.305,-26.855,-56.641,991.211,0.000,1731708179.662
1485,919.922,-24.414,-38.086,904.785,0.000,1731708179.666
1486,-987.793,-21.973,-44.434,-922.363,0.000,1731708179.670
1487,863.281,-22.949,-52.734,531.250,0.000,1731708179.674
1488,-521.484,-26.367,-42.969,-855.957,0.000,1731708179.678
1489,-1000.000,-27.832,-49.316,-1000.000,0.000,1731708179.682
1490,-947.266,-26.855,-62.012,-958.496,0.000,1731708179.686
1491,-936.523,-17.578,-63.477,-941.895,0.000,1731708179.690
1492,-1000.000,-15.137,-50.781,-1000.000,0.000,1731708179.694
1493,-515.137,-13.672,-32.715,-408.691,0.000,1731708179.698
1494,910.645,-22.949,-34.180,960.938,0.000,1731708179.701
1495,-993.164,-30.762,-41.992,987.793,0.000,1731708179.705
1496,918.945,-15.137,-41.016,928.223,0.000,1731708179.709
1497,992.188,-10.742,-47.852,983.887,0.000,1731708179.713
1498,899.902,-13.184,-49.805,907.715,0.000,1731708179.717
1499,-891.602,-22.949,-46.875,-892.578,0.000,1731708179.721
1500,324.219,-29.297,-55.664,205.078,0.000,1731708179.725
1501,-1000.000,-33.691,-61.035,-1000.000,0.000,1731708179.729
1502,-1000.000,-29.785,-57.617,-987.793,0.000,1731708179.733
1503,-971.191,-31.250,-42.969,-976.562,0.000,1731708179.737
1504,-939.453,-32.227,-35.645,-940.430,0.000,1731708179.741
1505,-1000.000,-28.809,-45.410,-1000.000,0.000,1731708179.744
1506,-394.531,-14.648,-44.434,-298.828,0.000,1731708179.748
1507,972.656,-3.906,-36.621,-987.793,0.000,1731708179.752
1508,983.398,-9.766,-42.969,967.773,0.000,1731708179.756
1509,928.711,-9.277,-53.711,938.477,0.000,1731708179.760
1510,984.375,-18.066,-49.805,973.633,0.000,1731708179.764
1511,904.297,-25.879,-42.969,919.434,0.000,1731708179.767
1512,0.000,-23.438,0.000,-909.668,0.000,1731708179.772
1513,0.000,-43.945,0.000,93.262,0.000,1731708179.776
1514,0.000,-50.293,0.000,-1000.000,0.000,1731708179.780
1515,0.000,-24.414,0.000,-973.633,0.000,1731708179.784
1516,0.000,-21.484,0.000,-979.492,0.000,1731708179.788
1517,0.000,-37.598,0.000,-1000.000,0.000,1731708179.791
1518,0.000,-38.574,0.000,-1000.000,0.000,1731708179.795
1519,0.000,-27.832,0.000,-1000.000,0.000,1731708179.799
1520,0.000,-20.996,0.000,-996.582,0.000,1731708179.803
1521,0.000,-20.020,0.000,-944.336,0.000,1731708179.807
1522,0.000,-28.809,0.000,-1000.000,0.000,1731708179.811
1523,0.000,-31.250,0.000,-147.461,0.000,1731708179.815
1524,-950.684,-32.715,-29.297,-942.383,0.000,1731708179.819
1525,949.219,-26.367,-34.668,944.824,0.000,1731708179.823
1526,944.824,-15.137,-34.668,948.730,0.000,1731708179.827
1527,976.074,-20.020,-25.391,976.074,0.000,1731708179.831
1528,969.727,-24.902,-26.367,970.703,0.000,1731708179.835
1529,970.215,-16.113,-29.297,970.703,0.000,1731708179.839
1530,970.215,-11.719,-32.715,971.191,0.000,1731708179.842
1531,970.703,-21.973,-40.527,969.238,0.000,1731708179.846
1532,907.227,-32.715,-32.715,910.645,0.000,1731708179.850
1533,-891.113,-39.062,-27.832,-893.555,0.000,1731708179.854
1534,188.965,-41.992,-32.715,159.180,0.000,1731708179.858
1535,-1000.000,-37.109,-37.598,-1000.000,0.000,1731708179.862
1536,-984.375,-41.016,-41.016,-979.980,0.000,1731708179.866
1537,-979.980,-48.340,-31.250,-986.816,0.000,1731708179.870
1538,-979.980,-40.039,-29.297,-952.637,0.000,1731708179.874
1539,-986.328,-36.621,-51.270,-1000.000,0.000,1731708179.878
1540,-1000.000,-31.738,-43.945,-791.016,0.000,1731708179.882
1541,190.918,-19.043,-19.531,581.543,0.000,1731708179.886
1542,-896.484,-6.836,-20.996,-938.965,0.000,1731708179.889
1543,909.668,-19.531,-28.320,911.621,0.000,1731708179.893
1544,970.703,-38.086,-29.785,977.051,0.000,1731708179.897
1545,907.715,-35.645,-34.180,914.551,0.000,1731708179.901
1546,-891.113,-26.367,-36.621,-898.926,0.000,1731708179.905
1547,188.965,-34.180,-39.551,123.535,0.000,1731708179.909
1548,-1000.000,-49.316,0.000,-1000.000,0.000,1731708179.913
1549,-984.375,-52.246,0.000,-976.074,0.000,1731708179.917
1550,-976.562,-49.805,0.000,-979.980,0.000,1731708179.921
1551,-940.918,-43.945,0.000,-941.406,0.000,1731708179.925
1552,-1000.000,-42.969,0.000,-1000.000,0.000,1731708179.929
1553,-274.414,-33.203,0.000,-244.629,0.000,1731708179.932
1554,-977.539,-23.926,0.000,-967.285,0.000,1731708179.936
1555,962.891,-38.574,0.000,958.496,0.000,1731708179.940
1556,945.801,-44.922,0.000,952.148,0.000,1731708179.944
1557,947.266,-40.039,0.000,933.105,0.000,1731708179.948
1558,963.867,-32.715,0.000,-997.070,0.000,1731708179.952
1559,-991.699,-30.273,0.000,877.930,0.000,1731708179.956
1560,-266.602,-42.969,-38.574,-462.402,0.000,1731708179.960
1561,-1000.000,-52.246,-30.273,-1000.000,0.000,1731708179.964
1562,-938.477,-49.316,-27.344,-938.477,0.000,1731708179.968
1563,-1000.000,-49.805,-26.855,-1000.000,0.000,1731708179.972
1564,-937.500,-52.246,-26.367,-939.941,0.000,1731708179.976
1565,-1000.000,-45.898,-30.762,-1000.000,0.000,1731708179.979
1566,-225.586,-11.230,-35.156,-197.266,0.000,1731708179.983
1567,-960.938,-7.324,-36.133,-953.125,0.000,1731708179.987
1568,954.590,-33.691,-37.598,951.172,0.000,1731708179.991
1569,949.707,-27.832,-36.133,956.543,0.000,1731708179.995
1570,945.801,-21.973,-39.062,923.340,0.000,1731708179.999
1571,963.867,-17.090,-39.062,-971.191,0.000,1731708180.003
1572,-992.188,-26.855,-35.645,774.414,0.000,1731708180.007
1573,-270.508,-42.969,-26.855,-598.145,0.000,1731708180.011
1574,-1000.000,-48.340,-25.879,-1000.000,0.000,1731708180.015
1575,-937.988,-42.480,-24.414,-941.406,0.000,1731708180.019
1576,-1000.000,-36.621,-21.484,-1000.000,0.000,1731708180.022
1577,-937.988,-30.762,-30.762,-950.684,0.000,1731708180.026
1578,-1000.000,-26.367,-33.203,-1000.000,0.000,1731708180.030
1579,-219.238,-31.250,-16.602,-101.562,0.000,1731708180.034
1580,-958.496,-23.438,-13.672,-937.988,0.000,1731708180.038
1581,953.613,-20.996,-39.551,940.918,0.000,1731708180.042
1582,956.543,-32.227,-43.945,958.984,0.000,1731708180.046
1583,902.344,-36.621,-29.297,905.762,0.000,1731708180.049
1584,-902.344,-28.809,-28.320,-894.043,0.000,1731708180.054
1585,490.723,-35.645,-26.855,345.703,0.000,1731708180.058
1586,-937.012,-50.293,-23.926,-1000.000,0.000,1731708180.062
1587,-1000.000,-49.316,-24.902,-1000.000,0.000,1731708180.065
1588,-963.379,-52.246,-28.320,-974.121,0.000,1731708180.069
1589,-953.613,-39.062,-27.344,-945.801,0.000,1731708180.073
1590,-1000.000,-28.809,-26.367,-1000.000,0.000,1731708180.077
1591,-777.344,-37.109,-23.926,-658.691,0.000,1731708180.081
1592,651.367,-20.508,-29.297,758.789,0.000,1731708180.085
1593,-938.965,-23.438,-32.227,-962.402,0.000,1731708180.089
1594,905.273,-29.297,-28.320,912.598,0.000,1731708180.092
1595,992.188,-19.531,-29.297,986.816,0.000,1731708180.096
1596,898.926,-16.113,-29.785,905.762,0.000,1731708180.101
1597,-892.578,-14.160,-23.438,-891.602,0.000,1731708180.104
1598,347.656,-25.879,-13.672,230.469,0.000,1731708180.108
1599,-1000.000,-40.039,-23.926,-1000.000,0.000,1731708180.112
1600,-1000.000,-39.062,-34.668,-991.211,0.000,1731708180.116
1601,-972.656,-37.598,-37.109,-982.422,0.000,1731708180.120
1602,-962.402,-41.992,-42.969,-945.312,0.000,1731708180.124
1603,-1000.000,-33.691,-42.969,-1000.000,0.000,1731708180.128
1604,-903.320,-25.879,-37.109,-660.156,0.000,1731708180.132
1605,477.539,-2.441,-24.414,740.234,0.000,1731708180.135
1606,-915.527,13.672,-20.508,-962.402,0.000,1731708180.139
1607,903.320,-4.395,-29.297,915.039,0.000,1731708180.143
1608,0.000,-7.812,-30.762,978.516,0.000,1731708180.148
1609,0.000,-6.836,-32.715,916.016,0.000,1731708180.152
1610,0.000,-22.949,-43.945,-900.879,0.000,1731708180.155
1611,0.000,-41.016,-54.199,109.863,0.000,1731708180.159
1612,0.000,-56.641,-41.504,-1000.000,0.000,1731708180.163
1613,0.000,-50.293,-25.879,-974.121,0.000,1731708180.167
1614,0.000,-28.809,-37.109,-990.234,0.000,1731708180.171
1615,0.000,-19.531,-33.691,-936.035,0.000,1731708180.175
1616,0.000,-21.973,-9.277,-1000.000,0.000,1731708180.179
1617,0.000,-34.180,-7.812,-502.441,0.000,1731708180.182
1618,0.000,-17.090,-28.320,890.625,0.000,1731708180.186
1619,0.000,-0.488,-44.922,-993.164,0.000,1731708180.190
1620,911.133,-11.719,-42.969,931.152,0.000,1731708180.195
1621,959.473,-23.926,-31.250,942.383,0.000,1731708180.199
1622,949.219,-34.180,-28.809,993.164,0.000,1731708180.202
1623,-954.102,-34.180,-41.504,908.203,0.000,1731708180.206
1624,-182.129,-42.480,-44.922,-408.691,0.000,1731708180.210
1625,-1000.000,-32.227,-38.086,-1000.000,0.000,1731708180.214
1626,-942.383,-20.508,-37.598,-939.941,0.000,1731708180.218
1627,-999.023,-33.203,-38.086,-1000.000,0.000,1731708180.222
1628,-937.988,-38.086,-28.809,-940.918,0.000,1731708180.226
1629,-1000.000,-38.574,-22.949,-1000.000,0.000,1731708180.229
1630,-219.238,-17.578,-24.414,-188.965,0.000,1731708180.233
1631,-958.984,-2.930,-21.973,-951.172,0.000,1731708180.237
1632,0.000,-14.648,-37.598,950.195,0.000,1731708180.242
1633,0.000,-20.996,-43.457,952.637,0.000,1731708180.246
1634,0.000,-18.066,-36.133,907.227,0.000,1731708180.249
1635,0.000,-14.648,-21.973,-892.578,0.000,1731708180.253
1636,0.000,-22.949,-18.555,330.078,0.000,1731708180.257
1637,0.000,-34.668,-34.180,-1000.000,0.000,1731708180.261
1638,0.000,-23.438,-36.621,-1000.000,0.000,1731708180.265
1639,0.000,-21.973,-35.645,-962.891,0.000,1731708180.269
1640,0.000,-41.504,-38.086,-1000.000,0.000,1731708180.273
1641,0.000,-25.391,-43.457,-945.312,0.000,1731708180.276
1642,0.000,-3.418,-43.945,-1000.000,0.000,1731708180.280
1643,0.000,-7.324,-22.949,-147.461,0.000,1731708180.284
1644,-958.984,8.301,-11.230,-944.824,0.000,1731708180.289
1645,953.613,6.836,-29.297,945.801,0.000,1731708180.293
1646,953.613,-23.438,-53.223,959.961,0.000,1731708180.296
1647,932.617,-26.367,-52.734,911.621,0.000,1731708180.300
1648,995.605,-17.578,-45.410,-928.223,0.000,1731708180.304
1649,915.527,-18.066,-47.363,563.965,0.000,1731708180.308
1650,-437.988,-26.855,-36.621,-824.707,0.000,1731708180.312
1651,-1000.000,-50.293,-34.668,-1000.000,0.000,1731708180.316
1652,-934.570,-58.594,-54.688,-949.707,0.000,1731708180.320
1653,-1000.000,-48.828,-57.617,-1000.000,0.000,1731708180.323
1654,-937.500,-39.062,-33.691,-956.543,0.000,1731708180.327
1655,-1000.000,-39.551,-28.809,-1000.000,0.000,1731708180.331
1656,-219.727,-30.273,-50.781,-67.871,0.000,1731708180.336
1657,-958.984,-13.184,-62.988,-937.500,0.000,1731708180.339
1658,953.613,-5.371,-53.223,938.965,0.000,1731708180.343
1659,942.871,-9.766,-35.645,957.031,0.000,1731708180.347
1660,976.562,-25.879,-38.086,948.242,0.000,1731708180.351
1661,970.215,-20.996,-42.480,-997.070,0.000,1731708180.355
1662,970.215,-13.184,-39.062,883.301,0.000,1731708180.359
1663,970.703,-15.625,-38.086,56.152,0.000,1731708180.363
1664,907.227,-22.949,-35.645,320.801,0.000,1731708180.366
1665,-891.113,-19.531,-29.785,-786.133,0.000,1731708180.370
1666,188.965,-26.855,-29.297,163.574,0.000,1731708180.374
1667,-1000.000,-42.969,-26.367,-1000.000,0.000,1731708180.378
1668,0.000,-39.062,-24.414,-984.375,0.000,1731708180.382
1669,0.000,-33.691,-33.691,-973.145,0.000,1731708180.386
1670,0.000,-27.832,-26.367,-1000.000,0.000,1731708180.390
1671,0.000,-28.320,-34.668,-938.477,0.000,1731708180.394
1672,0.000,-38.086,-42.480,-1000.000,0.000,1731708180.398
1673,0.000,-20.020,-26.367,-220.215,0.000,1731708180.402
1674,0.000,0.488,-26.367,-961.426,0.000,1731708180.406
1675,0.000,-17.578,-31.738,955.566,0.000,1731708180.410
1676,0.000,-21.973,-29.297,943.848,0.000,1731708180.413
1677,0.000,-22.461,-33.203,914.551,0.000,1731708180.417
1678,0.000,-21.484,-39.551,-891.602,0.000,1731708180.421
1679,0.000,-30.762,-22.949,195.801,0.000,1731708180.425
1680,-1000.000,-50.293,-22.461,-1000.000,0.000,1731708180.429
1681,-995.117,-46.875,-41.016,-985.352,0.000,1731708180.433
1682,-979.980,-40.039,-29.297,-985.352,0.000,1731708180.437
1683,-960.449,-38.574,-34.668,-946.289,0.000,1731708180.441
1684,-1000.000,-37.598,-39.062,-1000.000,0.000,1731708180.445
1685,-906.250,-20.020,-21.973,-717.773,0.000,1731708180.449
1686,472.656,-15.137,-25.879,684.570,0.000,1731708180.452
1687,-915.039,-30.762,-40.527,-951.172,0.000,1731708180.456
1688,903.809,-27.344,-37.598,912.598,0.000,1731708180.460
1689,979.980,-23.438,-30.762,974.609,0.000,1731708180.464
1690,908.203,-20.020,-31.250,922.852,0.000,1731708180.468
1691,-892.090,-15.137,-36.621,-912.109,0.000,1731708180.472
1692,175.781,-25.879,-26.367,51.758,0.000,1731708180.476
1693,-1000.000,-30.273,-20.508,-1000.000,0.000,1731708180.480
1694,-982.422,-20.020,-24.414,-967.773,0.000,1731708180.484
1695,-989.746,-23.438,-14.648,-993.652,0.000,1731708180.488
1696,-939.453,-42.969,-32.227,-935.059,0.000,1731708180.492
1697,-1000.000,-50.781,-48.340,-1000.000,0.000,1731708180.495
1698,-696.777,-31.250,-42.969,-485.352,0.000,1731708180.499
1699,746.582,-12.695,-36.133,903.320,0.000,1731708180.503
1700,-955.078,-13.184,-28.320,-996.582,0.000,1731708180.507
1701,918.945,-16.602,-31.250,935.059,0.000,1731708180.511
1702,942.383,-18.066,-30.762,931.641,0.000,1731708180.515
1703,992.188,-18.555,-29.297,-979.980,0.000,1731708180.519
1704,926.758,-28.809,0.000,825.195,0.000,1731708180.523
1705,-419.922,-47.852,0.000,-553.223,0.000,1731708180.527
1706,-1000.000,-47.363,0.000,-1000.000,0.000,1731708180.531
1707,-934.570,-34.180,0.000,-937.012,0.000,1731708180.535
1708,-1000.000,-28.809,0.000,-1000.000,0.000,1731708180.539
1709,-929.199,-27.344,0.000,-934.570,0.000,1731708180.542
1710,-1000.000,-24.902,0.000,-1000.000,0.000,1731708180.546
1711,-386.230,-20.996,0.000,-273.926,0.000,1731708180.550
1712,977.051,-13.184,0.000,-979.004,0.000,1731708180.554
1713,982.422,-30.273,0.000,963.379,0.000,1731708180.558
1714,935.547,-36.133,0.000,950.195,0.000,1731708180.562
1715,954.590,-25.391,0.000,928.223,0.000,1731708180.566
1716,953.613,-22.949,-33.691,-978.516,0.000,1731708180.570
1717,-965.332,-18.555,-30.273,803.711,0.000,1731708180.574
1718,-210.938,-28.320,-28.809,-559.082,0.000,1731708180.578
1719,-1000.000,-32.227,-33.691,-1000.000,0.000,1731708180.582
1720,-940.430,-33.203,-32.715,-939.453,0.000,1731708180.586
1721,-1000.000,-26.367,-16.113,-1000.000,0.000,1731708180.590
1722,-928.223,-11.719,-16.113,-936.035,0.000,1731708180.593
1723,-1000.000,-23.438,-46.875,-1000.000,0.000,1731708180.597
1724,-425.781,-41.992,-49.316,-257.812,0.000,1731708180.601
1725,958.496,-45.410,-41.504,-974.121,0.000,1731708180.605
1726,989.746,-23.926,-42.969,961.426,0.000,1731708180.609
1727,931.641,-15.625,-41.504,951.172,0.000,1731708180.613
1728,958.008,-22.461,-39.551,923.828,0.000,1731708180.617
1729,949.707,-22.461,-38.086,-963.379,0.000,1731708180.621
1730,-955.566,-18.555,-31.250,722.656,0.000,1731708180.625
1731,-182.617,-31.250,-29.785,-643.066,0.000,1731708180.629
1732,-1000.000,-41.016,-37.109,-1000.000,0.000,1731708180.633
1733,-942.383,-39.062,-47.363,-944.336,0.000,1731708180.636
1734,-999.023,-28.320,-45.410,-1000.000,0.000,1731708180.640
1735,-938.477,-17.578,-40.039,-952.637,0.000,1731708180.644
1736,-1000.000,-40.527,-44.434,-1000.000,0.000,1731708180.648
1737,-219.727,-40.527,-43.945,-89.844,0.000,1731708180.652
1738,-958.984,-15.625,-42.480,-937.500,0.000,1731708180.656
1739,953.613,-16.602,-39.062,940.430,0.000,1731708180.660
1740,958.008,-14.648,-29.785,959.961,0.000,1731708180.664
1741,905.762,-9.766,-21.973,905.762,0.000,1731708180.668
1742,-921.387,-16.602,-27.832,-895.508,0.000,1731708180.672
1743,604.492,-38.574,-37.598,354.492,0.000,1731708180.676
1744,-841.797,-44.922,-39.062,-1000.000,0.000,1731708180.680
1745,-1000.000,-31.250,-37.109,-1000.000,0.000,1731708180.683
1746,-945.801,-29.297,-34.668,-969.727,0.000,1731708180.687
1747,-996.582,-47.363,-36.621,-967.285,0.000,1731708180.691
1748,-969.727,-51.758,-36.621,-1000.000,0.000,1731708180.695
1749,-1000.000,-33.203,-40.039,-890.625,0.000,1731708180.699
1750,84.473,-9.766,-36.133,437.500,0.000,1731708180.703
1751,-900.879,-17.578,-38.574,-923.828,0.000,1731708180.707
1752,916.504,-20.996,-35.645,910.645,0.000,1731708180.711
1753,971.191,-3.418,-21.973,976.074,0.000,1731708180.715
1754,901.367,-27.344,-28.320,909.668,0.000,1731708180.719
1755,-891.113,-41.504,-40.527,-893.555,0.000,1731708180.723
1756,310.547,-41.016,-45.898,176.758,0.000,1731708180.727
1757,-1000.000,-45.410,-42.480,-1000.000,0.000,1731708180.730
1758,-1000.000,-34.668,-30.273,-982.910,0.000,1731708180.734
1759,-978.516,-41.992,-33.203,-984.863,0.000,1731708180.738
1760,-943.359,-54.199,-55.664,-937.012,0.000,1731708180.742
1761,-1000.000,-43.945,-49.316,-1000.000,0.000,1731708180.746
1762,-698.730,-31.250,-33.691,-489.258,0.000,1731708180.750
1763,744.141,-15.137,-29.297,902.832,0.000,1731708180.754
1764,-955.078,-11.719,-25.391,-996.094,0.000,1731708180.758
1765,909.180,-8.789,-26.855,928.223,0.000,1731708180.762
1766,979.004,-11.230,-29.297,958.984,0.000,1731708180.766
1767,916.992,-24.902,-31.250,955.078,0.000,1731708180.770
1768,-901.367,-26.367,-23.926,-987.793,0.000,1731708180.773
1769,79.590,-33.691,-17.578,-179.199,0.000,1731708180.777
1770,-1000.000,-39.551,-23.438,-1000.000,0.000,1731708180.781
1771,-969.238,-36.621,-32.227,-950.195,0.000,1731708180.785
1772,-994.629,-36.133,-38.574,-1000.000,0.000,1731708180.789
1773,-951.660,-26.855,-30.762,-934.082,0.000,1731708180.793
1774,-1000.000,-27.832,-23.438,-1000.000,0.000,1731708180.797
1775,-867.676,-17.578,-31.250,-526.855,0.000,1731708180.800
1776,528.809,-5.859,0.000,863.281,0.000,1731708180.805
1777,-922.363,-13.184,0.000,-988.281,0.000,1731708180.809
1778,903.320,-14.648,0.000,922.363,0.000,1731708180.812
1779,987.793,-9.277,0.000,976.074,0.000,1731708180.816
1780,900.879,-11.719,0.000,922.852,0.000,1731708180.820
1781,-891.113,-19.043,0.000,-921.387,0.000,1731708180.824
1782,307.129,-29.785,0.000,75.684,0.000,1731708180.828
1783,-1000.000,-44.922,0.000,-1000.000,0.000,1731708180.832
1784,-1000.000,-40.527,0.000,-974.609,0.000,1731708180.836
1785,-969.238,-35.156,0.000,-978.516,0.000,1731708180.840
1786,-942.383,-34.180,0.000,-946.777,0.000,1731708180.843
1787,-1000.000,-33.691,0.000,-1000.000,0.000,1731708180.847
1788,-312.500,-29.297,-45.410,-185.059,0.000,1731708180.852
1789,-992.676,-26.367,-41.504,-952.148,0.000,1731708180.855
1790,969.238,-24.902,-41.016,950.195,0.000,1731708180.859
1791,949.707,-23.438,-38.574,955.078,0.000,1731708180.863
1792,905.762,-31.250,-38.086,905.762,0.000,1731708180.867
1793,-911.621,-31.738,-36.133,-896.973,0.000,1731708180.871
1794,552.246,-41.504,-37.109,389.160,0.000,1731708180.875
1795,-890.137,-49.805,-31.738,-983.887,0.000,1731708180.879
1796,-1000.000,-43.945,-26.367,-1000.000,0.000,1731708180.882
1797,-946.289,-39.551,-29.297,-963.379,0.000,1731708180.886
1798,-1000.000,-33.203,-33.691,-984.375,0.000,1731708180.890
1799,-952.637,-30.273,-33.691,-994.141,0.000,1731708180.894
1800,-1000.000,-36.133,-28.320,-1000.000,0.000,1731708180.899
1801,-57.129,-23.438,-24.414,202.637,0.000,1731708180.902
1802,-920.898,-10.254,-39.551,-915.527,0.000,1731708180.906
1803,931.641,-18.066,-38.086,918.457,0.000,1731708180.910
1804,964.355,-14.648,-29.297,971.191,0.000,1731708180.914
1805,900.879,-15.137,-36.621,905.762,0.000,1731708180.918
1806,-893.555,-23.926,-41.992,-890.625,0.000,1731708180.922
1807,376.953,-34.668,-38.574,251.953,0.000,1731708180.926
1808,-997.070,-43.457,-24.414,-1000.000,0.000,1731708180.930
1809,-1000.000,-41.992,-17.090,-994.629,0.000,1731708180.933
1810,-968.750,-35.156,-24.902,-980.957,0.000,1731708180.937
1811,-970.703,-28.809,-39.062,-949.707,0.000,1731708180.941
1812,-1000.000,-28.809,-41.992,-1000.000,0.000,1731708180.946
1813,-963.867,-26.855,-27.832,-740.234,0.000,1731708180.949
1814,379.395,-20.020,-17.578,656.738,0.000,1731708180.953
1815,-906.250,-13.672,-25.391,-946.777,0.000,1731708180.957
1816,904.297,-15.625,-39.551,912.109,0.000,1731708180.961
1817,978.027,-12.207,-39.062,976.074,0.000,1731708180.965
1818,907.227,-11.719,-32.227,919.434,0.000,1731708180.969
1819,-891.113,-22.461,-28.320,-907.227,0.000,1731708180.973
1820,188.965,-40.527,-17.578,84.473,0.000,1731708180.977
1821,-1000.000,-50.293,-13.672,-1000.000,0.000,1731708180.980
1822,-984.375,-37.109,-18.555,-971.680,0.000,1731708180.984
1823,-980.469,-30.273,-27.344,-992.188,0.000,1731708180.988
1824,0.000,-28.809,-43.945,-947.754,0.000,1731708180.993
1825,0.000,-28.809,-35.645,-1000.000,0.000,1731708180.996
1826,0.000,-23.926,-27.344,-725.586,0.000,1731708181.000
1827,0.000,-10.254,-21.973,653.809,0.000,1731708181.004
1828,0.000,-10.742,-21.973,-950.684,0.000,1731708181.008
1829,0.000,-13.672,-24.414,918.457,0.000,1731708181.012
1830,0.000,-15.137,-12.695,954.102,0.000,1731708181.016
1831,0.000,-5.371,-0.488,961.914,0.000,1731708181.020
1832,0.000,-5.371,5.371,994.141,0.000,1731708181.024
1833,0.000,-41.016,-27.832,-218.262,0.000,1731708181.027
1834,0.000,-58.594,-63.477,-1000.000,0.000,1731708181.031
1835,0.000,-39.062,-54.688,-948.730,0.000,1731708181.035
1836,-982.910,-41.016,-46.387,-995.605,0.000,1731708181.040
1837,-941.406,-43.457,-40.039,-942.383,0.000,1731708181.043
1838,-1000.000,-29.785,-41.016,-1000.000,0.000,1731708181.047
1839,-219.727,-18.066,-42.480,-185.059,0.000,1731708181.051
1840,-958.984,-3.906,-19.043,-950.195,0.000,1731708181.055
1841,953.613,-11.230,-9.766,949.707,0.000,1731708181.059
1842,946.777,-20.996,-30.762,955.566,0.000,1731708181.063
1843,957.520,-27.832,-42.969,931.641,0.000,1731708181.067
1844,938.477,-30.273,-30.762,-994.141,0.000,1731708181.070
1845,-932.129,-21.484,-32.227,855.957,0.000,1731708181.074
1846,-108.887,-31.250,-41.504,-474.609,0.000,1731708181.078
1847,-1000.000,-47.363,-40.527,-1000.000,0.000,1731708181.082
1848,-947.754,-42.969,-35.645,-941.406,0.000,1731708181.086
1849,-995.117,-40.527,-37.598,-1000.000,0.000,1731708181.090
1850,-938.965,-36.133,-40.527,-943.359,0.000,1731708181.094
1851,-1000.000,-28.809,-34.180,-1000.000,0.000,1731708181.098
1852,-219.727,-22.461,-23.438,-163.086,0.000,1731708181.102
1853,-958.984,-14.648,-25.879,-946.777,0.000,1731708181.106
1854,953.613,-14.160,-40.039,946.777,0.000,1731708181.110
1855,955.566,-28.809,-31.738,959.473,0.000,1731708181.114
1856,924.805,-40.527,-20.020,910.156,0.000,1731708181.117
1857,-983.887,-29.785,-28.809,-925.293,0.000,1731708181.121
1858,849.609,-27.832,-37.598,568.848,0.000,1731708181.125
1859,-541.992,-30.273,-46.875,-833.008,0.000,1731708181.129
1860,-1000.000,-29.785,-38.574,-1000.000,0.000,1731708181.133
1861,-934.570,-44.434,-39.062,-951.660,0.000,1731708181.137
1862,-1000.000,-52.734,-27.832,-989.258,0.000,1731708181.141
1863,-944.824,-39.551,-10.254,-984.863,0.000,1731708181.145
1864,-1000.000,-28.320,-39.551,-1000.000,0.000,1731708181.149
1865,-137.207,-13.672,-55.664,144.043,0.000,1731708181.153
1866,-938.477,-16.113,-46.875,-916.504,0.000,1731708181.157
1867,942.383,-35.645,-47.363,920.898,0.000,1731708181.160
1868,956.543,-19.531,-40.527,967.285,0.000,1731708181.164
1869,904.297,-16.602,-32.715,907.715,0.000,1731708181.168
1870,-891.602,-23.438,-35.645,-891.113,0.000,1731708181.172
1871,329.102,-29.297,-33.203,225.098,0.000,1731708181.176
1872,-1000.000,-45.410,-31.250,-1000.000,0.000,1731708181.180
1873,-1000.000,-48.828,-41.016,-990.234,0.000,1731708181.184
1874,-977.051,-44.922,-36.621,-982.422,0.000,1731708181.188
1875,-942.871,-37.109,-37.598,-937.988,0.000,1731708181.192
1876,-1000.000,-37.109,-33.691,-1000.000,0.000,1731708181.196
1877,-686.035,-35.645,-18.066,-539.551,0.000,1731708181.199
1878,758.301,-15.137,-24.414,869.141,0.000,1731708181.203
1879,-957.520,-5.859,-29.785,-986.328,0.000,1731708181.207
1880,908.691,-10.742,-28.809,920.898,0.000,1731708181.211
1881,984.863,-11.230,-31.250,974.609,0.000,1731708181.215
1882,908.203,-8.301,-36.133,924.805,0.000,1731708181.219
1883,-892.090,-3.418,-44.922,-916.504,0.000,1731708181.223
1884,0.000,-23.438,-41.016,34.668,0.000,1731708181.227
1885,0.000,-43.457,-39.062,-1000.000,0.000,1731708181.231
1886,0.000,-28.809,-51.270,-966.309,0.000,1731708181.235
1887,0.000,-27.832,-49.316,-986.816,0.000,1731708181.239
1888,0.000,-31.738,-34.668,-938.965,0.000,1731708181.242
1889,0.000,-22.949,-23.438,-1000.000,0.000,1731708181.246
1890,0.000,-13.672,-29.297,-268.555,0.000,1731708181.250
1891,0.000,-8.301,-43.457,-975.586,0.000,1731708181.254
1892,0.000,-14.160,-40.527,962.402,0.000,1731708181.258
1893,0.000,-23.926,-38.574,948.242,0.000,1731708181.262
1894,0.000,-24.902,-38.086,940.918,0.000,1731708181.266
1895,0.000,-21.484,-29.297,985.840,0.000,1731708181.269
1896,-939.941,-22.949,-37.598,930.664,0.000,1731708181.274
1897,-128.906,-25.391,-36.133,-366.211,0.000,1731708181.278
1898,-1000.000,-30.273,-24.414,-1000.000,0.000,1731708181.282
1899,-946.777,-43.945,-29.785,-941.406,0.000,1731708181.286
1900,-996.094,-45.898,-30.762,-1000.000,0.000,1731708181.289
1901,-938.477,-35.645,-26.855,-941.895,0.000,1731708181.293
1902,-1000.000,-29.785,-15.137,-1000.000,0.000,1731708181.297
1903,-219.727,-14.648,-15.625,-179.688,0.000,1731708181.301
1904,-958.496,-5.371,-40.039,-949.219,0.000,1731708181.305
1905,953.613,-4.883,-41.504,949.219,0.000,1731708181.309
1906,948.242,-14.648,-32.227,956.543,0.000,1731708181.313
1907,953.125,-38.574,-44.434,928.223,0.000,1731708181.317
1908,947.754,-36.621,-36.621,-984.863,0.000,1731708181.321
1909,-951.660,-30.273,-29.297,818.359,0.000,1731708181.325
1910,-172.363,-40.039,-27.344,-525.879,0.000,1731708181.329
1911,-1000.000,-36.133,-25.879,-1000.000,0.000,1731708181.333
1912,-943.359,-34.668,-30.762,-943.848,0.000,1731708181.336
1913,-995.117,-42.480,-21.484,-992.676,0.000,1731708181.340
1914,-942.871,-28.809,-17.090,-965.820,0.000,1731708181.344
1915,-1000.000,-18.066,-30.762,-1000.000,0.000,1731708181.348
1916,-165.527,-19.531,-32.227,14.648,0.000,1731708181.352
1917,-945.312,-34.668,-23.438,-924.316,0.000,1731708181.356
1918,945.801,-31.738,-39.551,930.176,0.000,1731708181.360
1919,959.961,-9.277,-42.480,966.309,0.000,1731708181.364
1920,0.000,-17.090,-18.066,903.809,0.000,1731708181.368
1921,0.000,-37.598,-20.996,-894.043,0.000,1731708181.372
1922,0.000,-47.363,-44.922,340.820,0.000,1731708181.376
1923,0.000,-45.410,-52.246,-1000.000,0.000,1731708181.380
1924,0.000,-38.574,-40.039,-1000.000,0.000,1731708181.383
1925,0.000,-23.926,-20.508,-961.426,0.000,1731708181.387
1926,0.000,-16.602,-16.602,-1000.000,0.000,1731708181.391
1927,0.000,-22.949,-36.133,-935.547,0.000,1731708181.395
1928,0.000,-39.551,-47.363,-1000.000,0.000,1731708181.399
1929,0.000,-39.062,-33.691,-282.715,0.000,1731708181.403
1930,0.000,-11.719,-29.297,-986.816,0.000,1731708181.407
1931,0.000,-7.812,-36.621,966.309,0.000,1731708181.410
1932,925.781,-7.324,-33.691,939.941,0.000,1731708181.415
1933,913.574,-6.348,-28.320,914.551,0.000,1731708181.419
1934,-892.090,-14.648,-26.367,-891.113,0.000,1731708181.423
1935,348.145,-28.320,-30.273,222.656,0.000,1731708181.426
1936,-1000.000,-37.109,-31.738,-1000.000,0.000,1731708181.430
1937,-1000.000,-33.691,-22.461,-989.746,0.000,1731708181.434
1938,-960.449,-31.738,-17.090,-970.703,0.000,1731708181.438
1939,-1000.000,-30.762,-24.902,-1000.000,0.000,1731708181.442
1940,-1000.000,-27.344,-26.367,-1000.000,0.000,1731708181.446
1941,-1000.000,-20.996,-25.879,-1000.000,0.000,1731708181.450
1942,-1000.000,-27.344,-31.738,-1000.000,0.000,1731708181.454
1943,-953.613,-39.551,-38.574,-950.195,0.000,1731708181.457
1944,-1000.000,-34.180,-49.316,-1000.000,0.000,1731708181.462
1945,-922.852,-23.926,-44.434,-865.234,0.000,1731708181.466
1946,445.312,-18.066,-21.973,500.977,0.000,1731708181.470
1947,-912.598,-23.926,-10.254,-924.805,0.000,1731708181.473
1948,903.809,-23.438,-24.414,907.715,0.000,1731708181.477
1949,990.723,-17.090,-45.898,984.375,0.000,1731708181.481
1950,896.484,-12.695,-47.363,903.320,0.000,1731708181.485
1951,-896.484,-24.414,-27.344,-891.113,0.000,1731708181.489
1952,425.781,-39.551,-26.367,271.484,0.000,1731708181.493
1953,-973.633,-36.133,-51.758,-1000.000,0.000,1731708181.497
1954,-1000.000,-37.598,-45.898,-998.047,0.000,1731708181.500
1955,-960.449,-42.969,-31.250,-977.051,0.000,1731708181.504
1956,0.000,-38.086,0.000,-962.891,0.000,1731708181.509
1957,0.000,-26.367,0.000,-1000.000,0.000,1731708181.513
1958,0.000,-18.066,0.000,-870.117,0.000,1731708181.516
1959,0.000,-11.719,0.000,470.703,0.000,1731708181.520
1960,0.000,-14.160,0.000,-926.270,0.000,1731708181.524
1961,0.000,-13.672,0.000,912.109,0.000,1731708181.528
1962,0.000,-11.719,0.000,970.215,0.000,1731708181.532
1963,0.000,-21.973,0.000,921.387,0.000,1731708181.536
1964,0.000,-7.324,0.000,-910.156,0.000,1731708181.540
1965,0.000,-15.625,0.000,66.406,0.000,1731708181.543
1966,0.000,-34.668,0.000,-1000.000,0.000,1731708181.547
1967,0.000,-25.879,0.000,-969.727,0.000,1731708181.551
1968,-987.793,-26.855,-30.273,-993.652,0.000,1731708181.555
1969,-945.312,-35.645,-37.598,-936.523,0.000,1731708181.559
1970,-1000.000,-36.133,-42.969,-1000.000,0.000,1731708181.563
1971,-772.461,-24.414,-26.855,-558.105,0.000,1731708181.567
1972,657.227,-2.930,-31.250,843.750,0.000,1731708181.571
1973,-940.430,1.953,-38.086,-982.422,0.000,1731708181.575
1974,905.273,-15.137,-23.438,919.922,0.000,1731708181.579
1975,987.793,-24.414,-18.066,979.004,0.000,1731708181.583
1976,903.320,-21.973,-29.785,916.504,0.000,1731708181.586
1977,-890.625,-18.555,-35.645,-904.785,0.000,1731708181.590
1978,252.441,-28.809,-28.809,110.352,0.000,1731708181.594
1979,-1000.000,-41.504,-26.367,-1000.000,0.000,1731708181.598
1980,-994.629,-27.344,-28.320,-976.074,0.000,1731708181.602
1981,-968.750,-27.832,-40.527,-975.098,0.000,1731708181.606
1982,-946.289,-30.762,-44.922,-949.707,0.000,1731708181.610
1983,-1000.000,-30.762,-26.367,-1000.000,0.000,1731708181.614
1984,-219.727,-22.949,-26.855,-152.344,0.000,1731708181.618
1985,-958.984,-10.742,-39.062,-943.848,0.000,1731708181.622
1986,953.613,-28.809,-41.504,945.801,0.000,1731708181.626
1987,943.359,-28.809,-39.062,953.613,0.000,1731708181.629
1988,975.098,-17.090,-33.691,951.172,0.000,1731708181.633
1989,910.156,-22.949,-34.180,958.008,0.000,1731708181.637
1990,-894.531,-25.391,-40.039,995.117,0.000,1731708181.641
1991,152.344,-36.133,-42.480,-180.664,0.000,1731708181.645
1992,-1000.000,-41.992,-31.250,-1000.000,0.000,1731708181.649
1993,-979.492,-24.414,-14.160,-956.543,0.000,1731708181.653
1994,-974.121,-24.902,-28.809,-981.445,0.000,1731708181.657
1995,-947.266,-42.969,-48.340,-962.891,0.000,1731708181.661
1996,-1000.000,-48.828,-45.898,-1000.000,0.000,1731708181.665
1997,-178.711,-32.715,-42.969,-18.066,0.000,1731708181.669
1998,-948.730,-4.395,-44.922,-924.805,0.000,1731708181.673
1999,947.754,-8.301,-34.668,931.641,0.000,1731708181.676
2000,960.938,-18.555,-31.250,967.285,0.000,1731708181.680
2001,904.785,-21.484,-22.949,903.320,0.000,1731708181.684
2002,-921.387,-12.695,-21.973,-904.785,0.000,1731708181.688
2003,603.516,-18.066,-52.246,446.777,0.000,1731708181.692
2004,-842.285,-43.457,0.000,-942.383,0.000,1731708181.696
2005,-1000.000,-37.109,0.000,-1000.000,0.000,1731708181.700
2006,-941.895,-34.180,0.000,-957.520,0.000,1731708181.704
2007,-1000.000,-42.969,0.000,-994.141,0.000,1731708181.708
2008,-939.453,-30.273,0.000,-974.609,0.000,1731708181.712
2009,-1000.000,-30.273,0.000,-1000.000,0.000,1731708181.716
2010,-195.801,-36.621,0.000,73.242,0.000,1731708181.720
2011,-952.637,-25.879,0.000,-921.387,0.000,1731708181.723
2012,950.195,-31.250,0.000,926.270,0.000,1731708181.727
2013,944.336,-36.621,0.000,962.891,0.000,1731708181.731
2014,976.074,-20.996,0.000,964.844,0.000,1731708181.735
2015,969.727,-15.137,0.000,991.699,0.000,1731708181.739
2016,969.727,-14.160,-28.809,899.414,0.000,1731708181.743
2017,984.863,-31.250,-27.344,858.887,0.000,1731708181.747
2018,896.973,-40.039,-27.344,905.273,0.000,1731708181.751
2019,-913.086,-23.438,-43.945,-903.320,0.000,1731708181.755
2020,556.152,-33.691,-49.316,464.355,0.000,1731708181.759
2021,-883.789,-47.363,-42.969,-929.688,0.000,1731708181.763
2022,-1000.000,-29.785,-34.180,-1000.000,0.000,1731708181.766
2023,-944.824,-29.297,-27.344,-953.125,0.000,1731708181.770
2024,-1000.000,-58.105,-35.156,-1000.000,0.000,1731708181.774
2025,-937.500,-59.570,-34.668,-950.684,0.000,1731708181.778
2026,-1000.000,-37.109,-28.809,-1000.000,0.000,1731708181.782
2027,-219.727,-13.672,-35.645,-104.980,0.000,1731708181.786
2028,-958.496,-7.324,-36.621,-938.965,0.000,1731708181.790
2029,953.613,-29.785,-31.738,941.406,0.000,1731708181.794
2030,958.008,-29.785,-35.156,960.449,0.000,1731708181.798
2031,906.250,-18.066,-26.855,904.785,0.000,1731708181.802
2032,-922.852,-27.344,-23.926,-899.414,0.000,1731708181.806
2033,612.305,-31.250,-41.504,400.879,0.000,1731708181.810
2034,-833.984,-36.133,-44.434,-973.145,0.000,1731708181.813
2035,-1000.000,-60.547,-42.480,-1000.000,0.000,1731708181.817
2036,-946.289,-81.543,-37.598,-966.797,0.000,1731708181.821
2037,-993.164,-60.547,-34.668,-966.309,0.000,1731708181.825
2038,-976.562,-36.133,-49.316,-1000.000,0.000,1731708181.829
2039,-1000.000,-35.645,-49.805,-883.789,0.000,1731708181.833
2040,0.000,-32.715,-40.527,456.543,0.000,1731708181.837
2041,0.000,-29.297,-38.086,-923.828,0.000,1731708181.841
2042,0.000,-24.902,-47.852,910.156,0.000,1731708181.845
2043,0.000,-27.344,-41.504,976.074,0.000,1731708181.849
2044,0.000,-36.621,-25.879,911.133,0.000,1731708181.853
2045,0.000,-34.668,-49.316,-894.531,0.000,1731708181.856
2046,0.000,-31.738,-63.965,153.809,0.000,1731708181.860
2047,0.000,-60.059,-56.152,-1000.000,0.000,1731708181.864
2048,0.000,-69.824,-49.316,-979.492,0.000,1731708181.868
2049,0.000,-48.828,-52.246,-976.074,0.000,1731708181.872
2050,0.000,-52.246,-63.477,-1000.000,0.000,1731708181.876
2051,0.000,-43.945,-50.781,-1000.000,0.000,1731708181.880
2052,-1000.000,-35.645,-32.715,-997.070,0.000,1731708181.884
2053,-1000.000,-43.945,-32.715,-1000.000,0.000,1731708181.888
2054,-930.176,-30.762,-42.480,-930.664,0.000,1731708181.892
2055,-1000.000,-23.438,-46.875,-1000.000,0.000,1731708181.896
2056,-359.863,-16.602,-47.852,-354.004,0.000,1731708181.899
2057,988.770,0.000,-54.688,988.281,0.000,1731708181.903
2058,977.539,-13.672,-53.711,977.539,0.000,1731708181.907
2059,931.152,-34.180,-53.223,932.617,0.000,1731708181.911
2060,988.281,-30.273,-42.969,982.910,0.000,1731708181.915
2061,899.414,-21.973,-28.320,906.738,0.000,1731708181.919
2062,-891.602,-25.391,-41.992,-891.113,0.000,1731708181.923
2063,331.543,-35.645,-55.664,210.938,0.000,1731708181.927
2064,-1000.000,-39.062,-60.059,-1000.000,0.000,1731708181.931
2065,-1000.000,-33.203,-52.246,-988.281,0.000,1731708181.935
2066,-972.656,-34.180,-43.945,-979.492,0.000,1731708181.939
2067,-937.988,-36.621,-43.945,-937.988,0.000,1731708181.942
